Time FPz	EOG1	F3	Fz	F4	EOG2	FC5	FC1	FC2	FC6	T7	C3	C4	Cz	T8	CP5	CP1	CP2	CP6	P7	P3	Pz	P4	P8	PO7	PO3	POz	PO4	PO8	O1	Oz	O2	
-1000.0000	7.2929	2.4365	5.9170	5.5619	4.3632	3.3428	4.2989	4.6260	2.9687	3.0739	4.0752	4.3064	2.2493	2.4516	2.3036	2.5472	2.2596	2.2665	0.6300	0.5154	0.5219	1.7734	0.8347	-1.1588	-0.3799	-1.4756	0.8281	0.4663	-1.1765	-0.4254	-0.1489	-0.2185
-992.1875	9.2791	-0.7210	5.1278	5.6466	6.3031	1.0760	3.6277	3.6276	4.6225	4.2917	3.6605	3.6590	1.7506	1.4244	2.6698	1.7170	1.2908	0.9190	0.6147	0.1054	-0.7475	0.7845	0.0583	-0.7558	-1.5446	-2.9479	-0.3677	-0.1367	-1.2144	-1.8987	-1.5752	-0.5616
-984.3750	13.8931	0.4684	6.0010	6.0386	5.8979	3.9161	4.5220	3.5565	3.0664	4.7552	4.4640	3.0825	2.8336	1.7704	4.2812	2.2954	1.4586	1.0353	2.2270	1.7443	-0.2514	0.5451	0.3548	0.4661	-0.9638	-2.6303	-0.7842	0.0676	-0.4208	-1.8696	-1.3464	-0.7368
-976.5625	12.7432	-3.1290	4.9544	4.0969	4.2409	2.0066	2.9501	2.4533	3.0978	3.9079	2.0363	1.0528	2.0928	0.1214	2.7440	-0.4440	-0.6801	-0.6165	1.0566	-1.0307	-3.1423	-1.9073	-1.4669	-1.1731	-3.2718	-4.8938	-3.3775	-2.5410	-2.5808	-3.9952	-3.5907	-3.1930
-968.7500	13.3963	-1.6691	6.6748	5.9860	4.1383	2.6182	3.8052	4.4435	3.6423	4.6574	1.7674	1.5192	3.7754	1.7944	3.0425	-1.0002	-0.2258	0.4126	2.1339	-2.0365	-3.3962	-1.8508	-1.2136	-0.4195	-3.4268	-5.3016	-3.6375	-2.7657	-1.6524	-3.2173	-2.7426	-2.4977
-960.9375	12.1545	-2.0785	5.5336	5.5686	4.8788	2.9881	2.8046	4.0630	4.4676	3.8386	0.4222	1.1617	2.4613	1.5436	1.5031	-2.3167	-1.6433	-0.9358	0.7041	-3.4746	-4.3149	-4.0285	-2.7494	-1.6544	-4.1358	-5.2882	-5.3760	-4.4086	-2.5098	-4.3917	-4.2354	-3.8499
-953.1250	10.9085	-1.3759	5.1582	5.5176	4.7970	1.2445	2.6682	4.1297	3.6484	4.0822	1.3292	1.5552	3.4280	2.3301	2.6016	-0.4201	-0.3537	-0.0864	1.3140	-0.4787	-2.0818	-3.5087	-2.5178	-0.6113	-1.5832	-2.8521	-5.0524	-3.5399	-1.4138	-1.9854	-2.7322	-2.6828
-945.3125	7.1487	-3.3292	2.7527	3.7244	4.3698	0.4722	1.0150	1.3822	2.9216	3.0884	-0.2877	-0.0160	1.8343	0.2614	1.0650	-0.6782	-1.3703	-1.8055	-0.6400	-0.4418	-1.6041	-4.0317	-3.5709	-1.8606	-0.4515	-1.1673	-4.7469	-4.3061	-2.3276	-1.6036	-2.8600	-2.9827
-937.5000	7.1543	-0.9134	3.7168	3.8895	3.2559	-0.5158	1.9737	1.9661	1.4148	2.9506	1.3236	0.2124	1.7675	0.3639	1.5889	0.8244	-0.5996	-1.0841	0.1325	0.9872	0.4106	-2.5877	-1.8698	-0.5671	2.2132	1.6417	-2.2228	-1.7385	-0.1077	1.1036	-0.3633	-0.4088
-929.6875	5.2605	-1.5059	2.0242	1.3029	0.5312	1.3175	0.8767	0.5291	-0.0291	0.5754	0.5531	0.4931	-0.3358	-1.0072	-0.9806	0.4465	-0.8332	-1.9982	-1.8154	1.1393	0.8010	-2.5266	-2.4881	-1.5347	3.3175	2.9535	-1.6364	-1.4336	-0.3839	1.8424	-0.0654	-0.2810
-921.8750	4.9920	-0.8748	3.4177	2.5258	1.2556	-0.7738	2.9675	2.9006	1.3687	1.3644	2.3531	3.2047	1.2026	1.8379	-0.6843	3.2917	3.0274	1.0936	-0.6476	3.4769	3.6978	1.1318	-0.3302	-0.6674	5.1885	5.4459	1.6159	0.8400	1.0256	3.9990	2.4427	1.5048
-914.0625	3.7351	-1.4130	3.6356	2.9176	1.5312	0.9076	2.9463	3.5955	2.4965	0.6073	2.6472	4.0623	0.8743	2.4066	-1.1399	4.2622	4.0691	1.8602	-0.8305	4.5684	4.7747	3.1157	1.0472	-0.0440	5.7153	5.7294	3.6602	2.1518	1.8377	4.3541	3.1980	2.5784
-906.2500	3.3302	-0.8978	3.6476	2.4425	1.4410	-1.5337	2.9390	2.8491	1.8182	0.8610	2.9684	3.7874	0.4438	2.5169	-0.6892	4.6305	4.5348	2.5082	0.0658	5.4079	4.9915	5.1391	2.6967	1.3673	6.1033	5.4230	5.2725	4.5037	3.8903	5.2623	4.8543	4.5777
-898.4375	2.4161	-1.5143	1.5480	0.7996	0.0384	2.2466	1.5775	1.1305	-0.2308	0.1807	1.9161	2.5579	0.0924	2.0257	-0.5979	2.9158	3.4053	2.1871	0.2770	2.7728	2.7386	4.7108	2.6418	1.6272	2.8230	1.9960	4.5032	4.6079	4.1935	3.1634	3.7608	4.4236
-890.6250	2.6736	-0.7605	1.3750	2.3208	1.7366	0.6898	1.5650	2.3104	2.2512	1.6872	2.8260	2.7748	1.5917	3.1780	0.1836	3.1597	3.3854	2.4124	1.2870	2.8759	2.0660	4.1561	2.6540	1.3251	1.9405	0.8281	3.6735	4.3538	3.7446	1.8016	2.5363	3.4805
-882.8125	3.8048	1.6360	0.8805	2.7288	2.5921	3.9087	0.7708	2.3044	2.7609	2.5731	2.0307	1.8573	2.7247	3.2467	1.1152	2.0064	2.0930	1.8346	1.4685	2.4098	0.9806	2.4199	1.5534	0.6969	1.5214	-0.1963	1.8493	2.7089	2.7123	1.1678	1.2990	1.7539
-875.0000	4.0548	1.2351	-0.2016	1.1945	1.9646	2.0198	-0.1164	0.6151	2.2159	2.3748	1.2756	0.3082	1.9764	1.6708	0.2973	0.4144	0.4096	0.4848	0.3331	0.5061	-1.1611	0.3599	-0.3669	-0.3271	-0.0654	-1.7910	-0.0937	0.8426	1.3896	-0.2054	0.0001	0.3984
-867.1875	4.9044	0.8742	1.6571	0.8651	0.5470	3.4426	1.0548	0.5848	-0.4820	1.9366	1.7255	0.0056	2.0584	0.9244	0.7377	0.2714	-0.1982	0.0371	1.0001	0.5374	-1.6809	-0.4007	-0.3212	0.7829	-0.4256	-2.4123	-0.8882	0.6847	1.4192	-0.3943	0.0353	0.5859
-859.3750	2.2031	-2.4075	-0.7110	-1.7293	-0.9409	-1.6169	-1.3343	-2.2285	-1.5814	0.2956	-1.6443	-2.5359	-1.0637	-2.3470	-1.0862	-2.9246	-3.3240	-2.6566	-1.1961	-2.8933	-4.6467	-3.7168	-2.5592	-1.1855	-3.0853	-4.7071	-3.8498	-2.1491	-0.9971	-3.2480	-2.7380	-1.8878
-851.5625	5.5886	-0.8430	0.7313	-0.0437	-0.0601	0.2200	0.2045	-0.6173	-1.1941	1.4201	0.3474	-0.7791	0.0425	-0.5160	0.4587	-0.9777	-1.0794	-0.9095	0.0141	-2.1231	-2.3128	-1.8478	-1.3424	-0.6550	-2.6918	-3.2472	-2.2669	-1.1844	-0.6827	-2.1117	-1.1891	-0.7849
-843.7500	7.1179	-2.8729	2.4784	1.4615	3.0280	1.6431	2.2740	0.9450	1.9918	1.9989	2.0112	1.7442	0.4844	0.5360	-0.2634	1.6325	1.1967	0.0490	-0.4372	0.3165	1.0082	0.5318	-0.3018	-1.0516	0.2628	0.7700	0.5256	0.0665	-0.4097	0.7370	0.1371	0.0124
-835.9375	9.2359	-1.3696	5.2552	3.2154	2.9327	2.4528	4.7628	2.9228	1.7025	2.1560	4.1822	4.2525	1.8567	2.1259	0.5219	4.8001	3.6434	1.8943	0.3967	2.5411	4.1101	2.9934	1.1816	-0.3356	2.3731	4.0662	2.8006	1.8067	0.9654	2.6816	1.6246	1.1822
-828.1250	7.8006	-3.4975	5.8930	3.7184	3.2523	3.4355	5.4624	4.5014	2.8103	1.9071	4.9521	5.9274	1.5167	2.7005	-0.2866	5.8563	5.2195	2.6688	0.2922	4.1996	5.4214	3.9487	1.7121	-0.2706	3.7664	5.6606	3.8025	2.0948	1.2124	3.5822	2.2691	2.0705
-820.3125	8.0421	-2.7263	6.2125	4.6453	3.1715	0.7724	5.0992	5.5373	3.2232	2.1088	4.6493	6.2183	2.7340	4.1031	0.4587	6.1582	6.3578	4.0502	1.5573	6.0640	6.9710	5.4257	3.2820	1.8868	6.5921	7.5851	5.3056	3.9937	3.2609	6.1761	4.4126	3.8803
-812.5000	4.7435	-4.5220	2.0963	0.8712	-0.0375	0.7629	1.0552	1.2678	0.2321	-1.2377	1.2637	2.3656	-0.0002	0.3208	-1.7283	2.7825	2.5909	1.4271	-0.7725	4.1965	3.9555	3.1204	1.0245	0.7133	5.2099	5.9380	3.3424	2.2626	1.5509	4.0747	2.4556	2.1605
-804.6875	4.4166	-2.9784	1.1781	0.4440	-1.6347	-0.5771	0.5044	0.8156	-0.9753	-0.7107	1.7215	1.0443	1.0474	0.7663	0.2531	2.2397	2.6080	2.6033	1.1102	3.9288	3.3377	3.6497	2.7387	2.6401	4.9092	4.9482	3.8169	3.5575	2.7948	4.1051	3.0958	3.2827
-796.8750	1.0157	-5.7591	-2.7896	-3.1719	-4.8657	-0.9074	-3.5438	-2.6335	-3.5766	-3.2382	-1.9305	-2.7763	-1.0477	-2.5016	-1.2056	-1.6409	-1.8668	-0.5137	-0.9530	0.7046	-0.8503	-0.4805	0.2547	0.4338	1.8657	0.5862	-0.0230	0.2491	0.1898	0.6853	-0.0045	0.0858
-789.0625	0.7789	-4.1336	-1.2737	-2.3674	-3.9697	-2.4703	-1.2502	-1.5418	-2.8647	-2.4002	-0.0537	-1.6936	-0.1194	-1.3997	-0.4366	0.0796	-1.0911	-0.0170	-0.1986	2.5212	-0.1608	-0.3980	0.2881	1.0129	3.0556	0.8402	-0.2619	0.5694	0.7770	1.7567	0.9279	0.3619
-781.2500	2.6036	-2.7532	0.2902	-0.4507	-2.0056	2.8281	0.1171	-0.2487	-1.0796	-1.7395	1.1115	-0.5867	-0.4934	-0.4282	-0.3455	0.2548	-0.6731	-0.5036	-0.4699	1.7076	-0.5674	-0.9727	-0.3687	1.5094	1.2370	-0.9725	-1.3368	0.3113	1.0975	0.0543	-0.1812	0.3872
-773.4375	3.0423	-2.2990	1.3472	0.8318	-0.6446	0.5787	0.5308	-0.0559	-0.3737	-1.2064	2.3564	-0.8783	-1.4195	-0.8686	-1.2269	0.3514	-1.5054	-2.3105	-1.9507	2.3423	-1.4396	-2.6342	-2.1141	-0.4697	0.5763	-1.8059	-2.7933	-1.0692	-0.1292	-1.0850	-1.1710	-0.4542
-765.6250	3.0054	-0.2888	2.3478	1.3871	-0.0895	3.7687	1.4172	0.6736	-0.3413	-0.9660	2.7286	-0.3852	-1.7426	-0.8036	-1.5288	1.1143	-1.5240	-2.7545	-2.6290	3.1465	-0.9654	-2.7348	-2.7724	-1.4518	1.5380	-1.2843	-2.9336	-1.7325	-0.8646	-0.0309	-0.6265	-0.7239
-757.8125	3.4554	-1.8710	1.5313	1.5093	1.5470	-0.5547	1.1857	0.8121	1.2307	-0.0626	2.3777	0.1111	-0.9589	0.0466	-1.4026	0.9484	-0.5752	-1.4891	-2.0565	1.1778	-1.2511	-1.6018	-1.4571	-1.0841	0.0818	-2.0087	-1.7254	-0.7386	-0.2552	-0.4373	-0.2774	-0.0255
-750.0000	7.9255	-1.5608	3.5895	3.0223	2.4852	1.7760	2.9048	2.5824	1.5456	1.7919	2.6734	2.1038	1.2502	2.0553	0.2407	1.5060	1.3825	0.6976	-0.2203	0.5411	0.2527	0.8870	0.5935	-0.9352	-0.4460	-1.1020	0.1318	0.9429	0.0169	0.0646	0.6621	0.5890
-742.1875	11.3411	-2.6562	5.7488	4.3418	4.2393	1.3577	4.9879	3.4676	3.1635	3.1268	3.4073	3.5388	1.3992	2.1376	0.6760	2.5309	2.5010	1.0301	0.0528	1.4251	1.6449	2.4035	0.9279	-1.2638	1.1360	1.7443	2.3865	1.2294	-0.4656	1.8132	1.6746	1.2239
-734.3750	13.9806	-1.8897	7.6260	5.0199	4.6218	4.9614	6.7033	4.4663	2.3197	3.7886	4.8969	4.8094	2.2619	2.8835	2.1861	4.0655	3.9063	2.3428	1.8280	2.7803	3.6173	4.8392	2.5643	0.3536	2.1965	3.3016	5.0118	3.0533	0.8952	3.6875	3.9783	3.5327
-726.5625	8.9693	-4.6096	3.6453	1.7650	2.9119	0.8211	3.0298	1.8582	2.1768	2.1804	0.8150	2.6004	0.9099	1.1399	0.7581	1.4163	2.6336	1.5540	0.6032	-0.3436	2.4817	4.2598	1.6203	-1.1388	-0.1197	2.3811	4.2904	1.7868	-0.8930	1.2667	2.2731	1.5856
-718.7500	7.5403	-3.5597	2.8016	1.8344	1.6474	-1.9827	1.3995	2.2814	1.7952	2.9845	0.5509	2.5899	3.6816	2.3980	2.3192	2.2725	3.8365	3.7732	2.7519	0.5842	4.3182	5.3564	3.2169	0.6758	1.8255	4.4110	5.9141	3.0949	0.4326	3.2439	3.9272	2.9386
-710.9375	3.3763	-6.1942	-0.6310	-1.1099	0.3818	-2.6417	-1.0012	-0.7849	1.1558	2.1695	-0.9624	1.1908	3.3872	-0.0459	1.1570	1.3884	1.7471	2.5688	1.9181	1.4688	2.7250	2.9985	1.7586	-0.1203	2.7605	3.6808	3.6683	0.9869	-0.5382	2.3761	2.0834	1.3367
-703.1250	2.1242	-4.2016	-1.0664	-0.9937	-0.1567	-2.9776	-0.8994	-0.2766	0.6490	2.8846	0.1137	0.6731	5.3503	1.1131	2.9927	1.8535	2.4576	4.0501	3.6401	2.6568	2.7759	2.6718	2.7139	0.8039	3.3832	3.2027	2.2802	0.7154	-0.4255	2.4524	1.5515	0.5837
-695.3125	-0.0622	-4.2528	-2.4963	-1.9326	-1.2886	-1.3571	-2.3491	-1.2322	0.1652	0.7505	-1.0173	-0.7308	2.4337	-0.3436	0.8255	0.1964	0.0135	1.2894	0.9183	0.4716	0.4941	-0.7620	0.2824	-0.8597	1.1532	0.9630	-1.1442	-1.3040	-1.7616	0.2801	-0.7864	-1.2568
-687.5000	2.5054	-0.5520	1.5835	1.4446	-0.0042	-1.0129	1.2110	1.9223	1.7476	1.6731	1.5314	2.0093	2.7476	1.8861	1.7784	2.8735	2.0502	2.2487	1.8750	2.9855	2.4278	0.6405	1.7942	1.3155	3.4462	2.4552	0.2261	1.3907	1.3126	2.3590	1.4243	1.1799
-679.6875	2.5272	-2.0943	3.1115	2.5203	0.7223	0.0649	1.5918	2.7067	2.2219	0.8695	0.6482	1.9416	0.2372	0.8437	0.1831	1.5658	0.8670	0.2381	0.0248	1.6069	0.8197	-0.2487	0.7555	0.6164	1.9053	0.6311	-0.6641	1.4733	1.0911	0.4019	0.0849	0.4672
-671.8750	2.3715	-1.3367	3.3507	2.7760	-0.1055	-2.9406	1.3424	2.4315	0.3224	-0.2001	0.3046	0.7988	-1.7803	-0.2467	-0.1493	0.6450	-0.2771	-1.2091	-1.2787	0.5766	-0.2030	-1.0888	-0.4000	0.2155	0.2421	-0.9732	-1.3409	1.2378	1.0629	-0.4470	-0.5400	0.3105
-664.0625	2.2006	-0.6410	3.1606	2.4275	-0.9718	1.0811	1.6691	2.2050	-0.2132	-1.0397	0.6134	1.0529	-2.4923	-0.7052	-0.6300	0.6844	-0.5708	-2.2822	-2.1579	0.0748	-0.2118	-0.9467	-1.2301	-0.2793	-0.1317	-1.0382	-1.2850	0.3050	0.3923	-0.7762	-0.9452	-0.2613
-656.2500	1.7505	-0.2672	2.6606	2.5963	0.0891	-2.6758	1.5354	2.4971	0.4084	-0.1752	1.0618	0.8077	-2.0344	0.0798	-0.8207	0.9668	-0.1256	-1.6778	-1.6275	0.5529	0.2704	-0.0135	-0.7969	-0.3181	0.4881	0.0599	0.3064	0.9543	0.4173	0.1487	0.4482	0.7423
-648.4375	1.8558	0.3880	1.6816	1.8099	0.3171	0.2209	0.9958	1.6045	0.0789	-0.0972	0.4782	0.0269	-1.3981	0.5818	-0.1426	0.1754	-0.0781	-0.7909	-0.9576	-0.0411	0.0969	1.2770	-0.0742	-0.6144	-0.4493	-0.3131	2.0850	1.6137	0.3429	0.4807	1.1319	1.4684
-640.6250	2.0659	1.0339	2.0780	1.2811	0.4729	-1.1629	0.9645	0.9896	0.5816	0.4418	0.2872	-0.2008	-0.9899	0.3231	0.0198	0.0029	0.3004	-0.2548	-0.6263	-0.4032	0.2595	2.5682	-0.0252	-1.5568	-0.8751	0.1209	3.4270	1.3962	-0.1847	0.6374	1.2174	1.2020
-632.8125	1.7964	1.8319	1.7397	1.0565	0.7661	0.4529	0.7318	1.2009	0.4419	1.0918	-0.5328	0.3198	0.5693	0.9456	0.9662	0.0033	1.1572	1.5827	0.6385	-0.6780	1.8424	3.8000	1.1722	-1.1646	-0.1498	1.7069	4.5896	1.9436	0.1580	1.7853	2.3425	1.9018
-625.0000	-0.6838	-0.0684	0.0165	0.4021	1.3441	-3.0040	-0.0124	1.0133	2.2628	2.0623	-1.1538	1.3619	1.9074	1.9831	1.3671	0.4244	3.0277	3.1825	1.6050	-0.2003	3.4525	4.9406	2.5180	-0.1744	1.5772	3.9638	5.9571	2.8189	1.1167	3.6723	4.0380	3.2335
-617.1875	-2.2831	0.3303	-1.8285	-1.6310	-0.9710	-1.5299	-1.8326	-0.9244	-0.1943	1.8088	-2.2318	-0.0830	3.0025	0.8117	2.0121	-0.8001	2.3754	3.3450	2.4247	-1.2348	3.0346	4.1666	2.6254	0.6991	0.9868	3.6033	5.0105	1.7252	1.0323	3.1497	3.6224	2.5200
-609.3750	-4.7118	-1.1039	-5.9061	-5.8896	-3.8248	-3.0642	-5.2398	-5.3069	-2.5358	-0.0169	-4.5506	-3.7144	1.3191	-2.9216	0.6462	-3.1674	-0.7847	0.8151	0.9341	-2.3600	0.6731	1.3265	0.6952	0.1298	0.2942	2.1824	2.2975	-0.4527	-0.2394	1.6776	1.7879	1.1841
-601.5625	-5.4231	-0.6636	-5.9499	-5.9379	-5.5433	-3.1345	-5.1636	-5.0455	-3.7649	-0.6495	-3.7618	-3.3279	1.8958	-1.9822	1.0305	-1.5664	0.4776	2.1449	1.8879	-0.1794	2.3299	1.6214	1.4436	1.7905	2.3466	3.1492	2.4923	1.0838	1.5577	3.6108	3.5852	2.6427
-593.7500	-8.1434	-3.0571	-6.5509	-6.7679	-5.3474	-5.0397	-5.6157	-5.3364	-3.0844	-1.7799	-4.4131	-3.3739	0.5874	-2.7921	-0.5150	-2.5902	-0.9288	0.6979	0.6228	-1.2807	0.4892	-0.7074	0.3842	1.2849	0.6434	0.9562	-0.2468	0.2371	1.2776	0.9131	1.0046	0.9576
-585.9375	-7.3385	-1.5886	-4.9266	-5.6288	-5.5032	-4.2349	-3.9868	-4.1595	-4.3562	-2.3487	-3.4632	-3.3829	0.1765	-2.3547	-0.4137	-2.3789	-1.4296	0.2949	0.1992	-1.3781	-0.6153	-1.7527	0.3726	1.0093	0.2230	-0.6774	-1.7553	0.6906	1.3285	0.1769	0.1156	0.3092
-578.1250	-8.7926	-1.7289	-6.2867	-6.3596	-5.4781	-3.2276	-5.0537	-5.1880	-4.1449	-3.0424	-4.5691	-4.1600	-1.6196	-3.6932	-2.3439	-3.7321	-3.1515	-1.0416	-1.2623	-2.7968	-2.7900	-2.8075	0.0617	0.8000	-1.6984	-2.6927	-2.4408	0.9717	1.4598	-1.9628	-1.2865	-0.2692
-570.3125	-7.1934	-0.2906	-5.3966	-5.4383	-5.2565	-3.0958	-3.6523	-4.0599	-3.7311	-2.5073	-2.4475	-2.8897	-0.7651	-2.1547	-1.2864	-1.5132	-1.6864	0.2072	0.4865	-0.4822	-1.3132	-0.1716	2.1658	3.1618	-0.1490	-1.0335	0.4453	4.1802	4.5125	0.5618	1.6254	2.8481
-562.5000	-8.0755	-2.3863	-6.0823	-6.5312	-5.9164	-1.9471	-4.3231	-5.3997	-4.7420	-4.6899	-2.6437	-3.6016	-4.0435	-4.2670	-3.5642	-1.9770	-3.0907	-2.1110	-1.6990	-1.0513	-1.6806	-0.6657	0.9450	1.6079	-0.1056	-0.3423	0.7198	3.8903	3.3916	-0.0939	0.6528	2.3232
-554.6875	-5.5058	-0.4280	-3.1670	-3.6316	-4.0316	-3.5558	-2.6245	-3.0548	-4.4123	-3.5842	-1.3290	-2.8611	-3.8615	-2.8987	-2.4059	-0.9904	-2.2602	-1.5900	-0.9740	-0.5026	-0.8130	0.9012	1.8227	2.3039	-0.3328	0.5039	2.5165	5.2893	4.1466	0.0525	1.3254	3.3824
-546.8750	-3.9845	0.3535	-1.3092	-1.5466	-2.6949	0.9363	-1.3189	-0.8869	-2.3444	-2.7411	-1.2354	-1.4505	-3.5556	-1.1866	-2.5024	-0.7581	-1.9273	-1.7648	-1.7937	-0.4686	-0.9232	0.9303	0.8639	0.8582	-0.3241	0.4612	2.7354	3.9410	2.7755	0.7436	1.5490	3.0081
-539.0625	-3.0906	1.3274	-0.3539	0.0482	-1.4789	-1.5696	-0.8876	0.5236	-0.5785	-1.5541	-0.7509	-0.6423	-2.2353	0.4115	-1.5627	-1.0409	-1.5218	-1.3131	-1.5404	-0.8915	-1.2282	0.5299	0.1103	-0.2605	-0.8509	-0.0895	2.1187	2.5336	1.6623	0.4674	1.3074	2.1220
-531.2500	-2.3157	0.3249	-0.1454	0.1624	0.0704	0.9028	-0.7241	0.0277	0.1848	-1.0701	-1.1547	-0.8350	-1.5196	-0.1847	-1.1120	-2.4685	-2.2248	-1.7871	-1.8298	-2.3994	-2.2284	-1.0164	-1.5818	-2.0800	-2.4905	-1.6768	0.2496	-0.6538	-0.5326	-1.3553	-0.6660	-0.2239
-523.4375	-0.0351	1.6813	2.4813	2.4696	3.4847	-0.6496	1.7771	2.9253	3.9690	2.2596	0.2164	1.7727	2.1851	2.6684	0.6207	0.0154	1.1237	1.3664	0.2531	-1.1058	0.0076	0.7762	-0.6931	-2.0014	-0.9240	0.1824	0.9295	-1.8170	-1.7735	0.1414	-0.1143	-0.7262
-515.6250	0.4617	1.1639	3.6191	3.1706	3.1839	2.0015	2.9070	4.1275	4.1163	2.7736	0.5502	3.5675	3.7886	4.0777	1.5481	1.5360	2.6402	2.6216	1.5231	-0.0356	1.7010	1.1369	-0.4340	-1.8810	-0.0991	1.1957	0.2516	-3.1030	-2.9070	0.2033	-0.5500	-2.0532
-507.8125	-1.5517	0.1479	2.3691	0.8801	1.3189	0.4119	2.9699	1.9883	2.1841	1.3777	1.1170	2.6534	1.4351	0.7707	0.8909	0.8108	1.1463	0.1207	0.1849	0.0378	0.5004	-1.4393	-1.8861	-1.5857	-0.6038	0.1578	-2.2256	-4.6501	-3.3515	-0.9226	-1.9711	-3.0036
-500.0000	-0.8363	1.5869	2.4272	0.2397	-0.4489	3.4765	2.8404	1.3559	0.0455	0.2135	1.1062	1.9430	0.8526	0.2289	0.8920	0.6496	0.8724	0.0100	0.3043	0.0353	0.4173	-2.1661	-1.2153	0.1077	-1.0478	-1.2306	-2.7614	-3.4435	-1.8088	-1.3809	-1.9361	-2.4260
-492.1875	-3.2798	-2.3735	0.4741	-1.4682	-1.4249	-0.1069	1.1824	-0.0970	-0.1496	-1.5147	0.5307	1.2956	-0.8717	-0.7906	-1.1957	0.7960	0.4414	-0.0397	-0.7292	0.6795	1.0473	-1.7304	-0.6957	0.0886	0.6410	0.1768	-1.8936	-2.0851	-1.0477	-0.2662	-1.1408	-1.5768
-484.3750	-3.4040	-1.7267	0.0616	-2.0761	-2.0037	0.8646	1.3568	-0.1996	-1.5846	-1.8573	1.5970	2.2085	0.0540	0.1146	-0.7960	2.5906	2.3421	1.7103	0.5818	2.4607	3.1824	0.4899	1.3091	1.3273	2.7754	2.1833	-0.1952	-0.1850	0.6638	1.7933	0.6304	0.1003
-476.5625	-4.7151	-3.1319	-2.0320	-3.4838	-2.0774	-0.1763	0.1048	-1.8459	-0.9667	-2.3710	1.1386	1.2887	-0.6695	-0.6145	-1.2906	2.1121	2.0345	1.2852	0.4731	2.8905	2.9832	1.0869	1.3758	1.6723	2.7000	1.7642	0.1616	0.7376	0.8997	1.4395	0.0618	0.2495
-468.7500	-3.9470	-1.7559	-1.5085	-1.9514	-2.4944	-0.3857	0.0665	-0.9453	-1.4919	-1.2359	1.0440	0.8175	0.8592	0.3439	1.0178	2.1542	2.3140	3.0463	3.0236	2.4752	3.0279	3.4853	4.5131	4.4603	2.2221	1.9916	2.3884	4.5585	4.1407	1.9907	1.9248	2.7548
-460.9375	-7.1972	-5.3592	-4.4419	-3.8830	-3.9759	-2.6645	-3.4357	-3.7097	-2.6690	-2.7395	-2.7298	-1.9904	-1.2491	-2.6680	-1.8435	-0.9275	-0.9110	0.8251	1.0651	-0.0194	-0.2366	1.9824	3.0748	2.7395	-0.0040	0.1437	1.6087	3.7138	3.0471	-0.2764	0.3128	1.9002
-453.1250	-5.5731	-1.8841	-3.1013	-2.5084	-2.8848	-2.4219	-2.5036	-2.7042	-2.7795	-2.0181	-1.5453	-2.0809	0.1103	-1.6770	-0.6375	-0.0974	-0.6395	1.4052	1.6355	1.9488	0.4719	3.0720	3.6494	2.9533	1.6620	1.0159	3.1811	4.7778	3.4574	1.5248	2.2223	3.1929
-445.3125	-4.1355	-0.5628	-3.1960	-2.2526	-1.2839	-0.5702	-3.7348	-3.1031	-1.3668	-1.9114	-2.8833	-3.2901	-1.0745	-2.1096	-1.0856	-2.4975	-2.2211	-0.6105	-0.3402	-0.3992	-1.2513	1.1570	1.2939	0.1943	-0.0448	0.2733	1.8832	2.2207	0.8219	0.1799	0.3956	0.7753
-437.5000	-1.8047	1.0644	-1.0219	0.3929	0.0715	-2.2573	-2.0021	-0.4284	0.3379	0.0982	-1.0490	-1.6179	0.5168	0.9493	-0.2390	-1.0764	-0.1590	1.0552	0.5524	0.5918	-0.2092	2.7867	1.8504	0.7131	0.7042	1.7384	3.5700	2.9875	1.0780	1.8754	2.3359	2.1017
-429.6875	-1.6782	0.8438	-1.0870	0.4055	0.7247	1.4346	-1.2468	0.0834	1.8810	0.1924	-1.1314	-0.9903	1.1413	1.5713	-1.0561	-1.3100	-0.0009	1.5250	0.0045	-0.7678	-0.3243	2.1876	1.3315	-0.3448	-0.4944	0.8342	2.9286	1.9289	0.1813	0.8498	1.2589	1.6425
-421.8750	-0.4925	2.1193	1.2868	1.8468	1.5755	0.2086	1.2025	1.5720	2.8376	1.3697	0.7402	1.1059	3.5876	2.7975	0.1409	0.6023	2.0342	3.5395	1.5184	-0.0354	1.6390	3.1193	2.3361	0.1250	0.5090	2.3087	3.3417	2.1597	0.7481	1.9575	2.2247	2.0174
-414.0625	-0.1084	1.5615	3.0454	2.9700	1.8096	3.6195	3.6097	3.1089	3.3926	1.0217	1.7596	3.7966	3.7228	3.5793	-0.2097	2.1410	3.4341	4.0160	1.5451	0.6330	2.8182	3.4250	2.2118	0.1485	0.8287	2.9163	3.2736	1.3503	1.0546	2.4295	2.4328	2.1934
-406.2500	0.2229	1.0116	4.3284	4.6945	3.4752	0.3920	4.5875	4.9513	5.5453	1.7404	2.2083	5.4559	4.0062	5.3575	-0.0337	2.5178	4.9790	4.5935	1.2741	-0.0073	3.4120	3.4344	1.6888	0.0674	0.8489	2.6222	2.5434	0.4571	0.6462	2.0226	1.9273	1.3808
-398.4375	-0.9596	0.3287	2.4662	3.0815	3.2920	2.3197	2.9592	3.3184	4.0386	1.7678	0.9539	4.5514	3.6445	3.9163	0.3449	1.3164	3.9789	3.8028	1.2334	-0.8223	2.9142	2.5579	1.1743	0.1169	0.2906	1.9093	1.1583	-0.8398	-0.4782	0.8704	0.4687	-0.0371
-390.6250	-2.7922	-0.0790	0.1540	0.7379	1.6882	-0.8978	1.1489	0.7974	2.6986	1.0217	0.3885	2.7771	2.2416	2.3567	0.3861	1.1200	2.9911	2.7081	1.1596	0.6111	2.1019	1.5180	0.9493	0.3033	1.1913	1.5860	0.5643	-1.2804	-1.0090	0.8637	0.0511	-0.7350
-382.8125	-3.2466	0.0624	-0.1951	-0.9700	-0.4905	1.7746	1.0238	-0.2018	0.6719	-0.1583	0.6357	2.0886	1.5749	1.6533	1.4060	1.3423	2.6288	2.7405	1.9782	1.3180	2.2983	1.8350	1.5177	1.1003	1.3678	1.7699	0.5881	-0.3516	-0.5043	1.1013	0.4179	-0.1265
-375.0000	-4.3368	0.1281	-2.4498	-3.4484	-1.6725	-0.0453	-0.3500	-2.8793	-1.0405	-0.6604	-0.1354	0.4698	0.7809	-0.6505	0.9979	0.6374	1.2182	1.9068	2.2364	1.1834	1.8126	1.7465	2.1400	1.5242	1.3685	2.2044	0.6806	0.5533	0.0301	1.1057	0.2423	0.0752
-367.1875	-5.6668	-0.6977	-4.5773	-5.0899	-3.2001	-0.2558	-2.6923	-4.8997	-4.0229	-1.5268	-2.3081	-2.1294	0.5518	-2.1403	1.5285	-1.0737	-0.6520	1.2889	2.9108	-0.2868	0.2508	0.9652	2.3176	2.1951	-0.3927	0.1826	0.0371	1.0189	0.6163	0.0129	-0.1505	0.0271
-359.3750	-6.6589	-1.6971	-5.9404	-6.6650	-3.2091	-1.1450	-4.2630	-6.8957	-4.2788	-1.7753	-3.3392	-4.9258	-1.5808	-5.0277	1.1093	-3.6645	-4.1049	-1.4800	1.3707	-3.0159	-3.2318	-1.7684	0.3149	1.0862	-3.4750	-3.0151	-1.9936	-0.5255	-0.4912	-3.0160	-2.4806	-1.3949
-351.5625	-4.4897	1.7558	-4.2715	-4.5221	-3.2894	1.0479	-2.9084	-4.8021	-4.3574	-1.3682	-1.5076	-4.2688	-1.4861	-3.4665	1.7289	-2.4732	-3.8378	-1.5539	1.3268	-1.3326	-2.8115	-1.6236	0.4539	1.7800	-2.1465	-2.9129	-1.6516	0.2471	0.4283	-1.6023	-1.1229	-0.6866
-343.7500	-6.7355	-1.5503	-4.7751	-3.8136	-2.6582	-0.7184	-3.1316	-3.5720	-2.0402	-2.5391	-2.5465	-3.2297	-2.4078	-2.6725	-0.2002	-2.4152	-3.4471	-2.7027	-0.5379	-1.9363	-2.6008	-2.2287	-0.5749	0.6746	-1.9428	-1.9450	-2.1985	-0.1611	-0.1853	-1.9049	-1.8965	-0.9927
-335.9375	-6.2455	0.0425	-4.7294	-3.8045	-3.9690	-0.9618	-3.1924	-3.0349	-2.9618	-3.1037	-1.6069	-2.7599	-1.5532	-2.0280	-0.0823	-1.7716	-2.1783	-1.6216	0.3241	-1.1075	-1.3188	-0.7943	0.2416	1.2686	-0.8290	-0.5557	-0.5598	0.9577	1.1143	-0.6943	-0.5179	0.1233
-328.1250	-8.3247	-0.9692	-7.3265	-7.1485	-7.0223	-0.7441	-4.8308	-5.9410	-5.3640	-5.5315	-2.5936	-4.1864	-4.0590	-5.2088	-2.9304	-3.0214	-4.0572	-3.2695	-2.0183	-0.9859	-2.2013	-1.7235	-0.5217	0.4705	-0.2244	-0.1388	0.5959	0.9479	1.0509	0.2284	0.7330	1.1537
-320.3125	-7.3412	0.7982	-5.8671	-6.1387	-7.2145	-1.4530	-3.6369	-5.1320	-5.9232	-5.0494	-2.1253	-3.9405	-3.4533	-4.0159	-2.3843	-2.2761	-2.5170	-1.5640	-1.0507	-0.9477	-0.8127	0.2720	1.4377	1.8604	1.0605	1.6794	2.9705	3.5741	3.2819	2.7670	3.7584	4.1216
-312.5000	-7.8580	-1.6800	-6.5641	-5.8850	-5.7672	-1.2871	-4.8807	-5.0264	-4.6371	-6.2467	-3.0865	-4.6420	-4.9248	-4.1720	-4.4220	-3.6573	-3.3886	-2.8142	-3.3041	-2.0393	-2.1120	-0.7289	-0.6993	-0.2085	-0.3989	-0.0728	1.3941	1.0069	0.8512	0.9454	1.7495	1.7800
-304.6875	-5.4012	1.0372	-3.9839	-3.1262	-3.7307	-2.3013	-2.4096	-2.2572	-2.9219	-4.0739	-0.3943	-1.8856	-3.2541	-1.1349	-3.1732	-0.8521	-0.6716	-0.6852	-2.8453	0.9433	-0.0681	0.6631	-0.5743	-0.0566	1.3641	0.9043	2.1380	0.5228	0.4371	2.2992	2.7240	2.0419
-296.8750	-5.5122	0.6641	-4.8047	-4.0425	-4.3287	1.2919	-3.3550	-3.8349	-3.4881	-4.5502	-2.4974	-2.1572	-4.2575	-2.4794	-3.7238	-2.5525	-1.3907	-1.9937	-3.9671	-0.4922	-1.4315	-0.7076	-2.1627	-1.4309	-0.1068	-0.6663	0.2205	-2.0454	-1.4230	0.4073	0.5111	-0.1898
-289.0625	-4.4287	1.1873	-3.6253	-3.1052	-4.1805	-1.3468	-2.9940	-2.7063	-2.8595	-3.7097	-2.6995	-1.8399	-3.8997	-1.7555	-2.7251	-2.4474	-1.3274	-2.4562	-3.8631	-1.0890	-2.3500	-1.8632	-2.9264	-0.9912	-1.1914	-2.4601	-1.8199	-3.2469	-1.6533	-1.1477	-1.0720	-1.5577
-281.2500	-4.8874	0.5460	-4.0290	-2.5430	-4.4464	-0.1253	-3.3052	-2.2063	-2.2731	-3.9620	-2.7352	-1.9498	-4.3157	-1.1972	-2.6872	-2.9769	-1.9876	-2.9690	-3.9797	-2.2926	-2.9833	-3.4793	-3.6899	-1.6409	-2.2110	-3.6897	-3.6719	-4.3555	-2.4133	-2.4083	-2.2382	-2.4555
-273.4375	-5.2266	0.7274	-4.4274	-2.9424	-4.2058	-3.0060	-3.6135	-2.7972	-2.4527	-3.4426	-2.8908	-3.0350	-4.8228	-2.3654	-3.1000	-3.2281	-2.8094	-3.5162	-4.1342	-1.6446	-3.4731	-4.2167	-3.6763	-2.1142	-1.7208	-3.3854	-4.1821	-4.3819	-2.8577	-2.2100	-2.1252	-2.9532
-265.6250	-2.7955	4.3184	-2.7068	-1.8743	-2.3659	1.6274	-2.7801	-2.2859	-2.5920	-1.7677	-2.5079	-2.7985	-3.8865	-2.4195	-1.4329	-3.1761	-3.2179	-3.1772	-3.1543	-1.7627	-3.1848	-4.0231	-3.0427	-1.7907	-2.1063	-3.1170	-4.2923	-3.6073	-2.5322	-2.7120	-2.6868	-3.0458
-257.8125	-1.7000	3.4079	-0.6843	0.4845	1.0688	0.2367	-0.9184	-0.3596	1.0327	0.2242	-0.4977	-1.5423	-2.0547	-0.7496	-0.6692	-1.2720	-1.3658	-1.5957	-1.7367	-0.9834	-1.4465	-1.9413	-1.3795	-1.4776	-0.8313	-1.1184	-2.5847	-1.6597	-1.6359	-1.2979	-1.6530	-1.6521
-250.0000	-2.0893	2.9619	-1.4919	0.4257	-0.1649	1.4659	-1.6823	-0.1925	0.0297	-0.0655	-0.8971	-1.8877	-1.0150	0.1083	0.0763	-0.7755	-0.9578	-1.0809	-0.9893	-0.4917	-0.6175	-1.2119	-0.8826	-1.2787	-0.7710	-0.7962	-2.0187	-1.1575	-1.2168	-0.9582	-1.2861	-1.4198
-242.1875	-3.7920	2.1334	-4.2790	-2.0776	-0.9974	-0.9202	-3.7455	-2.9298	-0.8603	-0.1349	-1.5032	-3.5274	-1.7490	-2.2105	0.2934	-1.6951	-2.5368	-1.9304	-0.6769	-0.9063	-1.5554	-1.6398	-1.0552	-0.7279	-1.1148	-0.7272	-1.1992	-1.1055	-0.7115	-1.1258	-1.0149	-0.8179
-234.3750	-3.2234	3.1344	-4.7414	-3.2814	-1.5350	1.2990	-2.9125	-4.2219	-2.8570	0.0146	-0.3818	-3.4370	-1.0417	-2.7207	1.6406	-0.9488	-2.1632	-1.2094	0.6624	-0.3417	-0.4431	-0.3853	-0.0428	0.2892	-0.2596	0.5622	0.7991	-0.2640	0.5302	0.2706	0.8150	0.7061
-226.5625	-5.3317	1.3959	-6.6062	-5.4871	-2.5046	-0.3537	-4.4751	-6.4324	-3.8609	-1.3388	-2.2628	-4.1689	-3.2711	-4.7898	-0.1748	-2.2614	-3.2497	-3.1076	-1.5824	-2.5069	-1.3716	-1.1162	-1.7286	-1.5696	-1.5718	0.3529	0.6085	-1.8518	-1.4545	-0.7959	-0.2719	-0.6484
-218.7500	-3.9386	2.6129	-4.7454	-4.6832	-3.5498	0.3713	-2.8856	-5.2119	-4.5858	-1.1175	-1.0704	-2.8007	-2.8571	-4.0554	0.7726	-1.1011	-2.0608	-2.3444	-0.8753	-1.3605	-0.1778	0.4615	-1.0513	-0.2132	-0.3618	1.7374	2.5098	-0.6193	-0.3729	1.5404	2.2165	1.0471
-210.9375	-6.5458	0.0894	-7.0740	-6.6168	-3.5951	-1.4731	-4.9421	-6.4149	-4.4670	-2.2213	-3.0396	-4.7347	-4.8911	-5.6074	-1.1912	-3.4802	-4.3360	-4.5676	-2.9960	-3.0339	-3.0378	-1.9950	-3.9961	-2.6032	-2.5859	-1.1979	0.0569	-3.8692	-3.2833	-1.0861	-0.2151	-1.4174
-203.1250	-5.0234	2.4848	-5.1781	-4.4274	-2.2852	-1.3934	-3.8770	-4.3176	-3.5576	-1.2992	-1.9644	-4.4645	-2.6264	-3.1972	0.3140	-3.3576	-3.6080	-2.7142	-1.6981	-2.9981	-3.3437	-2.1601	-3.1650	-2.0365	-3.3702	-2.7208	-0.5964	-3.4773	-2.7562	-1.8128	-0.4097	-1.4905
-195.3125	-5.4715	0.1821	-5.5090	-4.8406	-2.1123	-0.3164	-4.4596	-5.3329	-2.6703	-1.6283	-3.0543	-5.0604	-3.0315	-4.3388	-0.5950	-4.5266	-5.3892	-3.7997	-2.1745	-3.4820	-5.0106	-4.3375	-3.6928	-1.9920	-4.1893	-4.4789	-3.2340	-4.4058	-3.2182	-3.3318	-2.6329	-2.9824
-187.5000	-5.0064	1.3897	-4.9960	-3.6076	-1.6483	-3.2289	-4.2650	-4.1506	-2.6110	-0.5796	-2.9096	-4.8169	-2.0419	-3.3939	-0.1577	-4.1661	-4.6718	-3.4082	-0.6866	-3.6144	-5.0934	-4.9881	-2.7378	-0.5999	-4.6453	-5.3247	-4.4518	-3.3669	-2.1365	-3.7707	-2.9723	-3.2507
-179.6875	-6.2135	-0.2521	-5.4950	-3.8174	-2.0101	-3.0215	-5.1915	-3.7962	-3.1724	-1.4546	-5.2166	-4.8400	-2.9216	-3.6624	-1.1644	-5.2777	-5.6875	-3.9887	-1.4414	-5.7856	-6.0486	-6.7873	-3.3798	-0.6168	-6.3692	-6.6710	-6.2349	-3.8327	-2.4961	-5.7641	-4.8699	-4.3074
-171.8750	-3.3226	2.1150	-1.4815	-0.7460	-0.1331	-2.7076	-1.9820	-0.5784	-1.0350	-0.4346	-1.9050	-1.9971	-1.8854	-0.4410	-0.5871	-2.1674	-2.7624	-2.1186	-1.0250	-2.5885	-4.0497	-5.5269	-2.1571	-0.1093	-4.2886	-5.1122	-5.5559	-2.8461	-1.4077	-4.5519	-4.1850	-3.5856
-164.0625	-0.4321	3.6167	0.7194	1.4859	1.4816	2.1816	-0.4441	1.3433	0.5997	-0.7961	-1.4633	-1.1488	-2.8077	0.3670	-2.1552	-2.5077	-2.6190	-3.1256	-2.7721	-2.8653	-4.2919	-6.3979	-3.5462	-2.2207	-4.7048	-6.2717	-7.2523	-4.3002	-2.9204	-6.1538	-6.2749	-5.5382
-156.2500	0.3707	2.3418	2.0396	3.4449	2.7592	-1.8813	0.0867	2.6436	1.6952	-0.1974	-1.6568	-0.6727	-1.5439	1.3101	-1.5674	-2.1891	-1.6244	-1.9420	-1.4741	-2.8473	-3.1254	-4.7756	-1.8909	-0.5226	-3.6192	-4.6923	-5.6964	-2.2490	-0.6341	-4.6383	-4.2840	-3.1373
-148.4375	1.2994	3.7709	2.5021	3.3380	2.5314	2.5048	1.1180	2.7598	1.4872	-0.2195	-1.0147	0.7966	-0.2337	1.5808	-0.7794	-0.8553	0.1147	-0.6421	-0.3400	-1.8344	-0.6940	-2.2420	-0.0343	0.8324	-1.4392	-1.4851	-2.7904	-0.1044	1.0905	-1.8838	-1.6252	-0.5257
-140.6250	1.2498	5.4135	1.5126	3.0559	3.4608	1.2998	0.9479	2.4888	2.5787	0.8683	-0.6942	1.6232	0.4553	2.4326	-0.4613	-0.0241	1.8344	0.3131	0.2475	-0.9717	0.8845	-0.0261	0.4690	-0.0775	0.2385	0.9331	-0.4858	0.2765	0.5569	-0.3549	-0.7061	-0.2881
-132.8125	0.1617	4.6066	-0.0906	2.0658	2.5761	1.9930	-0.7079	2.0732	2.0694	0.7545	-2.0311	0.7914	1.1705	3.1379	-0.0370	-0.9289	1.8902	0.9816	0.6139	-1.3991	1.2060	1.2208	0.3140	-0.5066	0.1516	1.5411	0.5253	-0.1303	-0.5958	-0.2374	-0.5459	-0.7732
-125.0000	-1.4526	3.4414	0.2064	1.8003	2.5824	-0.6127	0.0514	2.3668	2.9546	0.9962	-1.2550	1.4639	1.0302	2.7228	0.3122	-0.4713	2.5588	1.6556	0.7360	-1.5263	1.9776	3.0341	1.1423	-0.5117	0.5315	2.8331	2.3772	0.9345	-0.4154	0.7814	0.6606	0.4235
-117.1875	-1.2366	3.4584	1.5223	1.8122	2.0279	0.9770	1.6372	2.8922	1.7534	0.8674	-0.0214	2.4622	1.8276	3.3023	1.5896	1.1435	3.7241	3.1639	2.3888	0.0620	3.7873	5.4039	3.1471	0.7791	2.1054	4.6616	5.1245	2.7762	0.8563	3.0213	3.2024	2.3301
-109.3750	-3.3976	1.7998	-1.2973	-0.8980	0.4427	-1.2125	-0.7856	-0.1199	0.6004	-0.6168	-1.3169	-0.3588	-0.0316	0.6495	0.0665	-0.6201	0.7508	0.6168	0.6069	-0.6837	0.8374	2.5147	0.8067	-0.8442	1.0034	2.5712	3.1436	-0.2109	-1.6689	1.3096	1.3591	0.0835
-101.5625	-2.1401	4.2781	-1.3582	-0.4999	0.1385	0.2640	-0.6362	-0.2172	-0.5599	0.2725	-0.3463	-0.9308	1.0609	0.7156	0.9887	-1.0040	-0.2210	0.1107	0.9440	-0.8576	-1.0675	0.8008	-0.1137	-0.7987	-1.1249	-0.0655	0.9468	-2.0234	-2.6073	-0.7070	-0.0612	-1.7684
-93.7500	-3.4657	2.4382	-2.5446	-1.5645	0.5554	-0.8927	-1.3853	-1.3321	-0.0989	-0.1320	-1.5672	-1.9270	-0.5223	-0.9828	-0.2865	-2.5554	-2.9590	-2.1852	-0.7417	-2.7334	-4.3848	-2.8863	-2.6141	-2.2915	-3.6283	-3.4199	-2.9209	-5.0275	-4.8068	-3.5010	-3.2364	-4.5488
-85.9375	-1.5083	3.9249	0.0645	0.4727	0.7500	-0.0902	0.8847	0.6246	-0.3948	0.5103	0.1889	-0.9747	0.5604	0.4003	1.7105	-1.7233	-2.6938	-1.4130	1.0166	-2.3989	-4.8003	-4.1905	-2.0357	-0.1741	-4.6737	-5.6286	-5.2454	-4.5322	-3.1191	-4.8690	-4.2951	-4.6978
-78.1250	-2.7196	0.6326	-1.0161	-0.6150	0.3875	0.6108	-0.4891	-1.5965	-0.8197	-0.7561	-2.3363	-3.4114	-1.6925	-2.3426	-0.2215	-4.8386	-5.9231	-4.3905	-1.2309	-6.1265	-8.6590	-8.9186	-4.8466	-1.6294	-9.0876	-10.4683	-10.4251	-7.2268	-4.7035	-9.5889	-8.7999	-8.0440
-70.3125	-1.2685	3.1921	1.1291	1.2022	1.8730	-1.4950	0.5169	0.3310	-0.3735	0.4151	-0.5049	-2.7266	-0.6229	-0.9996	1.1161	-3.0940	-4.8158	-3.6586	-0.5275	-3.8539	-7.2938	-8.7833	-4.3372	-1.4972	-7.0322	-10.0512	-10.6779	-6.2594	-3.9299	-8.2948	-8.1429	-7.6792
-62.5000	-1.0712	3.2276	2.1915	2.2464	3.7280	0.2391	1.7622	1.6814	1.3898	1.2413	0.4788	-0.8668	-0.4289	-1.1537	1.4982	-1.5873	-4.2322	-3.5553	-0.1645	-2.4857	-5.1146	-8.4253	-3.8299	-1.0278	-5.1860	-7.8744	-9.7588	-4.7702	-2.5870	-7.5544	-7.7058	-6.3475
-54.6875	1.8335	4.7586	6.2463	6.2033	6.4209	0.3972	5.8599	5.7423	3.7591	3.1875	3.7508	3.4090	1.6360	1.9823	2.7825	2.6625	0.1304	-0.6569	1.9591	0.3684	-0.4711	-4.4716	-0.8421	1.2563	-2.2865	-3.5886	-5.8540	-1.0454	0.4869	-4.1594	-4.1292	-2.8325
-46.8750	0.2888	2.5454	4.9820	3.9831	4.0464	2.8074	5.0353	3.9677	2.2992	0.2813	3.2429	3.3933	-0.5010	0.5569	0.0942	3.4480	0.5483	-1.3477	0.0709	1.0395	1.5329	-3.0919	-0.8960	0.1258	-0.5009	-0.8588	-3.5745	-0.7598	-0.1942	-2.5492	-3.2130	-2.3645
-39.0625	-0.1008	3.1014	4.7790	3.3212	2.5741	-0.1312	4.5763	3.2272	1.5896	0.0869	3.7663	3.7583	-0.1570	1.0451	0.2535	5.0549	2.4800	0.5659	0.8431	3.4910	4.6840	1.0060	1.2851	1.1933	3.0432	3.8396	0.8141	1.9379	1.6342	1.6025	0.6530	0.8219
-31.2500	-0.9706	2.2321	5.2456	4.4702	2.2496	1.9590	4.5927	4.2637	1.9942	-0.0101	3.7273	4.7743	0.6461	2.4995	0.5851	5.8865	4.3260	2.1868	1.3596	4.5199	6.2441	4.3100	2.6900	1.6587	4.1659	5.7969	4.0739	3.5254	2.6385	3.2032	2.7446	3.0095
-23.4375	-1.1250	2.0493	4.1985	4.2742	2.7360	-0.6749	3.7345	4.1368	2.6033	0.7803	4.0712	3.9948	1.4822	3.4947	0.4992	5.4027	4.9780	2.4358	1.6266	4.3473	5.9943	5.1886	2.5682	0.8936	4.1353	5.8350	5.0994	3.1204	1.6513	3.3085	3.2052	2.7857
-15.6250	1.1700	4.9874	3.7601	4.4749	4.2787	3.1373	3.5091	3.8833	2.4662	2.2220	3.6827	3.4819	2.5582	4.6409	1.9192	4.4211	4.6352	3.1662	2.5948	3.3857	5.2083	5.2744	2.5319	0.9682	3.4221	4.6289	4.9339	1.7560	0.2932	3.4998	3.4194	2.1492
-7.8125	0.2360	4.6141	2.3345	3.8967	4.5249	-0.4193	1.8882	2.7164	3.1823	2.2971	2.0042	2.0878	1.7342	3.4945	2.2391	2.3769	2.5636	2.1685	2.4470	1.3325	2.5449	3.3645	1.0995	0.3539	0.5242	1.7381	2.9757	-0.3434	-1.2564	0.9465	1.4839	0.0703
0.0000	-0.0337	4.5496	1.0240	2.3814	2.9268	1.5699	0.8161	1.2348	1.3053	2.2876	0.9496	-0.0625	1.5699	1.6125	2.3279	0.4336	0.1947	0.8212	2.3083	-0.2254	-0.1849	0.3605	-0.4431	-0.2011	-1.9630	-1.5977	-0.0221	-2.8487	-2.7485	-1.2591	-0.4277	-2.0241
7.8125	-2.4206	3.3108	-1.4656	-0.1585	1.8146	-0.8341	-1.0550	-1.3862	0.4875	1.2377	-0.4100	-2.0341	0.0916	-1.2796	0.7828	-1.8171	-2.7575	-1.7748	0.3581	-3.1666	-3.8361	-3.7943	-2.8847	-1.7734	-5.1659	-5.2848	-4.2239	-5.7135	-4.9594	-5.2469	-4.2328	-5.1174
15.6250	-1.6320	6.2257	-1.9867	-0.6851	0.1765	0.8396	-1.3746	-1.4061	-1.2349	1.5740	-0.4013	-1.9175	0.8331	-0.8904	2.6837	-1.2991	-2.9846	-2.0070	1.3743	-2.7352	-3.7434	-4.6692	-2.6834	-0.7229	-4.6569	-5.8638	-5.6634	-5.9091	-4.1371	-5.1551	-4.3074	-5.3856
23.4375	-2.8616	4.2121	-2.7159	-1.4537	-0.0536	-0.0464	-2.5054	-2.3577	-0.9043	1.3909	-2.1978	-3.6438	-0.8495	-2.6503	1.7473	-2.8677	-5.3130	-4.5870	-0.1806	-3.4764	-5.6978	-7.7582	-4.5936	-1.5091	-5.4526	-7.1037	-8.5605	-7.6455	-4.6868	-6.9947	-6.5777	-7.0423
31.2500	0.7500	8.0145	0.9429	1.9957	2.0735	2.2003	-0.0383	-0.0908	-0.1296	3.1721	0.0943	-2.5205	-0.0399	-1.8697	3.2689	-2.1701	-4.6239	-4.4871	0.5539	-3.7320	-5.8479	-8.5475	-4.8309	-1.3811	-6.8954	-8.4020	-9.9855	-7.2549	-4.2262	-8.3492	-7.8511	-7.4982
39.0625	-0.7337	6.3073	-0.4502	0.7094	2.4318	1.5082	-0.6595	-1.3458	0.0164	2.7526	-0.6604	-2.5377	-1.3063	-3.5043	1.9400	-2.4991	-5.4560	-5.9358	-0.3222	-3.8479	-5.6368	-9.3826	-5.5523	-2.1198	-5.8515	-7.5584	-10.2999	-7.2476	-4.3812	-7.8937	-8.1065	-7.6660
46.8750	-0.8574	6.0712	0.7753	1.7898	1.0808	-0.0646	1.1259	0.6226	-0.4519	2.2454	0.6119	-0.3856	0.3995	-1.3673	3.0140	0.7720	-1.8037	-3.0522	1.8729	-0.8174	-1.4878	-5.3717	-2.2436	0.1890	-2.0853	-2.9083	-6.0875	-3.1524	-1.0297	-4.1294	-4.3444	-4.3114
54.6875	-1.6599	4.5092	0.7890	1.6759	1.6439	1.0176	1.2779	0.5892	0.6177	1.9011	1.2983	0.9838	0.3295	-0.8879	1.9984	1.9527	-0.3655	-1.6415	1.5865	0.3471	1.0226	-2.4154	-0.2418	0.1047	0.1385	0.5628	-2.2838	-0.2162	0.2183	-1.4319	-2.1976	-1.8063
62.5000	-0.5499	6.2769	1.3949	1.9983	1.4864	-0.2532	1.7131	0.9868	0.1609	1.9953	2.7204	1.0972	1.2066	0.1202	2.6375	3.1485	0.6508	0.0717	2.5312	2.9684	3.0011	0.1447	1.7303	1.3492	3.6737	3.3820	1.0571	2.0884	1.7294	2.2372	1.5742	1.1563
70.3125	-0.8454	5.4517	0.0802	0.8324	0.6586	2.1596	0.4605	-0.5679	-0.4042	0.8448	0.8443	-1.3172	-0.2131	-1.4103	1.6861	0.7289	-1.5298	-1.4863	0.7862	1.1192	0.5616	-1.4930	-0.0454	-0.6006	1.4189	1.1676	-0.3497	-0.4419	-1.2772	-0.3219	-0.5215	-0.7044
78.1250	-0.2454	6.8444	0.6460	1.5184	1.9905	0.5088	1.1782	-0.4495	0.4007	2.5180	2.0004	-1.2621	0.7480	-0.2637	2.4392	1.5612	-0.5148	-0.1504	1.5764	2.0952	1.0203	0.0992	0.2218	-0.2840	1.3622	1.2642	0.2899	-0.5534	-1.5281	-0.1566	-0.0720	-0.4365
85.9375	-1.4559	5.6623	-0.6116	0.3276	1.0661	2.1080	0.2668	-1.1051	0.4108	1.2895	0.8903	-1.1229	0.0034	-0.3624	1.1167	1.4063	-0.6358	-0.5854	0.9440	1.9982	1.0084	-0.2047	-0.9093	-0.9458	1.7043	0.7860	-0.1201	-2.5245	-2.7305	-0.0752	-0.1685	-1.4980
93.7500	-1.7549	5.4350	0.0806	1.1786	1.7923	-1.3490	0.6282	-0.2206	0.9742	1.6273	1.6248	-1.0328	0.3600	0.0112	0.7910	1.1016	-0.9171	-1.0345	0.6055	1.6244	-0.1426	-1.4686	-1.7467	-1.5514	1.2110	-0.2261	-1.1330	-4.6572	-3.8730	-0.0783	-0.2949	-2.8325
101.5625	-0.5709	6.5769	0.4873	1.9823	3.3263	2.4123	0.6648	0.6420	1.2243	2.2804	0.4139	-1.7996	0.7572	0.2054	0.6847	-0.9872	-2.2617	-2.0936	0.3467	-1.1808	-2.6342	-3.4593	-3.2764	-2.2162	-1.8207	-2.9558	-3.8942	-7.4498	-5.2686	-2.3521	-2.4641	-5.2870
109.3750	-0.2453	6.3692	2.5980	3.3709	4.7507	0.8029	2.2436	2.3765	2.8499	2.9461	1.4592	-0.3004	1.4634	1.1364	0.7082	-0.1466	-1.3898	-1.7657	0.3443	-0.7164	-2.4418	-3.3280	-3.5318	-2.4719	-1.8572	-3.4103	-4.9558	-8.0705	-5.3360	-2.9644	-3.2421	-5.5400
117.1875	1.4663	7.5716	4.8740	4.0998	4.1764	4.4144	4.7533	3.5418	1.9600	2.7763	3.6661	2.5466	1.8383	2.1093	1.0153	2.0753	0.6342	-1.1422	0.6254	0.8555	-0.6907	-2.7268	-2.7073	-2.0597	-1.2816	-2.7696	-4.5999	-6.6760	-3.5892	-2.6100	-2.7711	-4.5094
125.0000	0.7531	6.7040	3.6447	3.0107	3.9728	1.8600	4.4343	2.3707	2.2635	2.9621	2.5673	3.1361	1.4743	2.0482	0.5408	2.9195	1.6160	-1.0664	0.5543	0.8455	0.2382	-2.5703	-2.0643	-1.2708	-0.4866	-1.7956	-4.1227	-4.5907	-0.9288	-2.3758	-2.5067	-3.5336
132.8125	1.3175	7.6279	4.3037	3.6658	3.4229	3.8206	5.1882	3.8803	2.2947	3.5396	4.0557	4.5889	3.4671	4.3457	1.4915	5.0191	3.8083	1.2310	2.0989	2.9187	3.3972	0.1018	0.1084	-0.0832	2.1007	1.2038	-1.5271	-2.1242	1.2509	-0.0295	-0.6339	-1.4685
140.6250	0.7250	6.5473	4.1928	3.2515	3.1196	3.5272	5.8235	4.1915	3.7670	3.0924	5.1283	5.6507	3.0102	4.1332	0.3335	5.9386	4.5018	1.5074	1.1916	3.8394	4.6529	0.8117	0.2839	-0.8532	3.3477	3.4265	-0.3699	-1.7631	1.2190	0.7727	-0.0147	-0.6900
148.4375	2.8471	9.1689	6.2721	4.7841	1.9911	6.2211	7.8459	5.5690	2.4283	2.7173	7.1363	6.8856	3.0177	5.0851	1.7185	8.1228	5.8138	2.6998	2.0404	6.5559	6.5797	1.8342	1.2936	0.7244	5.4670	4.9805	1.1984	-0.2671	2.7292	3.0237	2.0024	1.2205
156.2500	2.6284	8.2116	5.1172	3.7734	1.4589	6.2698	6.4101	3.4770	1.7520	0.2091	6.1923	3.9980	-1.1987	1.9594	-0.7762	5.7994	1.8673	-1.2715	-1.9320	5.7619	3.6711	-1.5187	-2.5765	-2.4977	3.6153	2.7603	-0.9247	-3.9272	-0.8356	0.8073	0.0092	-1.2782
164.0625	4.3959	10.0814	4.8910	4.0632	1.5357	6.6245	5.2982	2.6154	0.7414	-0.3339	6.9430	1.5415	-1.8061	1.7954	-0.1950	4.6045	0.8097	-1.8975	-2.4271	4.9472	2.4048	-2.2011	-3.3695	-2.9927	2.8393	1.6024	-1.1405	-4.6495	-1.9696	0.6613	0.7259	-1.3112
171.8750	2.3625	9.2187	2.0209	2.3321	1.4849	6.9807	2.1184	0.0396	0.5123	-1.3428	3.5733	-1.6716	-3.9027	-0.4945	-1.8827	0.9759	-2.2932	-4.6125	-4.6621	2.2065	-0.9583	-4.7840	-5.9856	-4.8388	0.7665	-1.7647	-3.7726	-7.8288	-5.5388	-1.5350	-1.6646	-4.1841
179.6875	3.7337	10.8669	3.3827	4.0480	1.8781	5.5355	3.0858	1.9747	1.0518	-0.3904	4.3195	-1.1020	-2.7359	0.9227	-1.8323	1.2491	-1.9235	-4.3640	-4.4759	3.0004	-1.4387	-4.8769	-6.1178	-4.7791	0.8953	-3.3350	-4.9672	-9.0148	-6.8053	-1.8194	-2.0515	-5.3358
187.5000	3.9605	9.6043	4.0444	4.7634	3.2329	7.7751	3.3918	2.9965	2.9485	-0.5600	3.3181	-1.0650	-2.6959	1.5103	-2.2637	-0.1110	-3.2216	-5.3319	-5.5596	1.1520	-3.5510	-6.8539	-8.0408	-6.7190	-1.1516	-6.0294	-8.1623	-12.1441	-10.7335	-4.7840	-5.8282	-9.6683
195.3125	6.6457	12.0116	6.7927	7.9950	6.7656	7.3026	5.5130	5.7608	5.9545	2.5782	4.1160	0.1652	0.3762	4.4529	-0.1956	0.5767	-2.0795	-3.1616	-3.8275	1.0393	-3.6506	-6.1466	-7.1191	-6.3294	-1.9531	-7.1533	-9.0134	-12.0712	-11.0252	-5.7979	-6.8662	-11.0141
203.1250	6.3025	10.4255	7.4936	9.0137	7.3356	9.2972	5.7521	7.0757	7.6903	2.8037	4.1820	1.2566	1.1002	5.7383	-1.4068	0.7510	-1.4606	-1.9576	-3.8717	0.7507	-2.8119	-5.0909	-5.8835	-6.0856	-2.1092	-6.1876	-8.2793	-11.1277	-9.3684	-5.7018	-6.3946	-9.9407
210.9375	6.8448	11.1060	9.3099	10.4455	7.7915	5.9422	7.0516	9.4379	9.1773	3.4369	4.4800	3.4616	2.6618	8.3879	-0.7826	1.7175	1.4378	0.3893	-2.5716	1.4206	-0.8880	-2.8477	-3.8488	-4.7055	-0.3862	-3.2694	-5.6749	-8.2414	-6.7446	-3.1743	-4.2216	-7.2952
218.7500	7.2736	11.1631	8.9983	9.1026	7.1567	9.0548	7.2921	9.0594	8.1527	3.2471	4.1709	4.1635	3.0238	8.2925	-0.9624	1.6781	2.4048	1.0473	-2.3659	1.3546	0.0907	-1.5464	-3.0960	-4.0922	0.5549	-1.4529	-3.7687	-6.4351	-4.7860	-1.8086	-2.7789	-5.2412
226.5625	7.3558	11.2282	9.2135	8.6031	7.0373	6.9447	7.5583	8.7432	7.9805	3.8590	4.6316	4.5550	4.2598	8.1403	-0.7457	2.7323	4.1224	3.4047	-0.6274	2.1369	1.9204	1.8346	-0.2414	-2.3147	2.3904	1.4995	0.1917	-2.9583	-1.8594	0.7594	0.3362	-1.4011
234.3750	9.6069	13.2364	11.3065	9.6881	7.3881	10.7797	8.8712	9.7909	7.8148	4.0317	5.5509	5.4609	5.3513	8.9608	0.2292	3.1443	5.0954	4.7372	0.6107	2.8987	3.2809	3.6063	1.0544	-1.4078	3.9421	3.1540	2.1338	-2.3029	-1.4617	2.6315	2.0068	-0.3550
242.1875	10.3059	12.8865	11.4402	8.6687	6.5328	8.2611	8.5426	8.7845	7.2090	2.4717	4.3686	4.0718	3.0442	7.9776	-0.4680	1.5037	3.6504	2.4244	-1.1086	1.7248	1.4967	1.7565	-1.4191	-2.9931	2.2994	0.8510	-0.0399	-5.5278	-4.5904	0.4152	-0.3618	-3.1712
250.0000	10.4813	13.7822	11.0038	7.2744	4.6708	11.5062	8.5554	7.8163	4.6469	1.3211	4.2926	4.1173	1.5041	7.8250	-0.8481	1.3734	3.5298	1.5381	-2.2409	1.5463	0.6711	0.4036	-3.3352	-5.1542	1.1637	-1.4305	-2.1813	-8.8837	-8.1970	-0.9000	-1.9332	-5.8073
257.8125	10.6720	15.6901	9.3843	6.6150	7.0621	11.8358	8.2049	6.6348	5.6890	2.5819	5.1839	3.8982	0.6182	7.1933	-1.7917	0.8350	2.4423	0.0401	-3.7492	1.4891	-1.0640	-1.7742	-5.6967	-7.7358	0.2124	-3.8043	-5.1737	-12.4782	-12.2142	-2.7254	-4.5644	-9.1747
265.6250	13.2392	19.1735	10.3800	8.5659	8.6977	14.1912	8.4899	7.8665	6.3989	3.4610	4.9877	3.1897	1.1851	8.9737	-1.1855	-1.0298	1.5792	-0.5012	-4.0929	-0.6497	-3.3962	-3.8840	-7.6701	-9.0873	-3.7400	-8.0719	-8.8533	-14.8130	-14.7747	-6.5656	-7.7983	-12.6377
273.4375	13.3553	19.0323	10.8619	9.8453	10.1456	15.3015	8.8194	8.9369	9.7176	3.6044	4.0609	3.0394	0.3020	9.5494	-2.3277	-2.6613	0.1673	-1.8484	-6.1452	-2.4302	-6.1300	-6.8238	-10.1175	-12.1577	-6.8580	-11.6668	-12.4308	-17.9043	-18.4299	-10.6399	-11.5758	-16.9047
281.2500	17.0650	22.9795	15.0823	14.4544	13.7919	17.1754	11.8518	13.1092	12.7417	7.2065	6.3628	5.0199	4.4610	13.3032	1.5670	-1.1032	1.5869	1.0748	-2.9564	-1.2993	-6.2210	-6.4069	-7.9258	-10.5609	-7.0164	-12.8302	-13.0231	-16.6267	-17.6995	-11.1897	-11.9384	-16.7748
289.0625	14.8796	20.4941	14.5004	14.9394	15.0908	15.8739	11.0547	13.4041	14.8461	7.5503	4.1948	3.9352	4.6374	12.8071	0.9179	-3.4269	-1.1388	0.1896	-3.1193	-4.4771	-9.7234	-9.4134	-8.5986	-10.4387	-9.9199	-16.7322	-16.6201	-16.8475	-17.0391	-14.4200	-14.6850	-17.7086
296.8750	15.3395	20.5916	16.6780	16.6901	15.7631	16.0720	13.7077	16.1207	16.0320	9.2480	5.9865	6.2389	7.3477	14.9152	2.7824	-0.3787	0.6214	2.6577	0.2516	-2.6001	-7.9697	-7.3352	-5.5433	-7.1438	-7.8366	-15.2485	-14.7632	-12.9464	-13.1898	-12.1352	-12.4754	-14.6900
304.6875	12.8467	16.6172	17.4982	17.4403	17.3015	16.4208	14.7105	17.7643	17.8250	10.1302	6.9236	8.5730	8.9801	16.6491	3.2332	1.7181	3.4885	4.9714	2.1718	-1.4422	-5.0623	-3.4814	-3.1019	-5.7623	-5.7894	-10.9458	-10.5929	-9.8745	-10.9024	-10.0597	-10.3280	-11.8180
312.5000	15.0433	17.2622	21.1815	21.4947	20.8480	13.3123	17.5964	22.3230	21.4106	13.2862	9.6953	13.0436	13.3134	22.0063	6.2575	5.9642	10.2873	10.8555	6.1230	1.9553	1.3652	4.9868	2.2605	-2.5436	-1.9560	-4.3603	-2.6929	-3.5610	-6.1357	-4.6294	-4.5572	-5.7785
320.3125	15.2808	15.6501	21.8267	22.0223	23.1104	14.5738	18.0253	22.9440	23.7034	14.6273	9.4638	14.8507	14.8023	23.5985	6.6344	7.4779	13.6925	14.1739	7.5762	1.7214	5.3443	10.6082	5.7151	-1.4773	-0.8505	-0.3252	2.8541	-0.2486	-4.3316	-2.0072	-1.7837	-3.0007
328.1250	15.1260	15.5387	24.8702	24.6150	25.2694	12.2788	21.1362	26.8453	25.7239	16.8541	11.9156	19.0375	17.8398	28.0398	8.5358	11.7098	19.6344	19.6186	10.8965	4.5490	11.4806	18.4730	10.7368	1.2900	2.6506	6.1647	9.5772	4.9852	-0.4306	2.3766	2.6147	0.9195
335.9375	15.2594	14.5463	26.7569	26.1175	26.7466	15.0081	23.0475	28.9267	27.1430	17.4545	12.8628	21.9139	18.4882	30.1342	9.4499	13.3790	22.5391	21.5932	11.8649	5.8984	13.9888	21.7564	12.3116	1.8278	4.2938	9.1447	12.0750	5.9404	0.2823	3.8454	3.3203	1.3336
343.7500	15.3492	15.1253	26.9015	26.6962	27.2895	12.2490	22.7817	28.7259	27.6177	17.9242	13.3882	21.6222	17.7595	29.8874	10.2845	13.6080	22.3457	21.2118	11.4599	5.9772	13.5941	21.4140	11.5778	1.4186	3.7206	8.8964	11.4384	4.5862	-1.0195	3.2363	2.7013	-0.0347
351.5625	15.8407	16.5943	26.2991	25.9612	26.1960	16.1147	22.2128	27.3967	25.5999	16.4854	13.2654	19.7397	15.1649	27.7386	9.5508	12.3908	19.5878	17.7198	9.4998	5.4732	11.6700	17.3380	8.6986	0.4456	2.6538	7.3982	8.1489	1.8749	-2.3484	1.8536	0.9737	-1.6789
359.3750	15.6979	15.7754	25.5070	25.5045	26.2858	14.5566	22.0476	25.5924	25.2585	16.5930	12.7096	17.4131	13.7861	24.7403	8.7533	10.5079	15.9524	14.5482	8.4863	4.6025	8.4302	12.5493	6.1088	0.1601	1.5638	4.5330	4.1394	-0.7929	-3.5372	-0.0754	-1.4637	-3.7110
367.1875	16.6092	15.9190	26.3527	27.2538	27.6476	16.4034	22.0877	26.2023	25.8851	18.2478	12.2083	16.2512	15.3896	24.3618	10.7525	8.6674	13.5657	14.5203	10.0338	2.8175	5.7489	9.4571	6.5173	1.0863	-1.3689	0.6943	1.1964	-0.6696	-2.9990	-2.8388	-3.2308	-4.4809
375.0000	18.1208	16.3202	28.5330	30.2233	31.5997	13.8176	22.4970	27.8148	29.1127	21.1921	12.0538	15.8239	16.8368	24.2872	12.3690	7.6165	12.0410	14.1731	10.9751	1.9607	3.8048	6.8229	6.3664	1.9832	-1.4646	-0.7305	-0.8203	-0.6823	-1.9236	-3.7490	-4.2592	-4.7414
382.8125	20.0109	17.1802	31.1668	33.1800	33.7693	15.5251	24.6399	30.3831	30.3751	23.7084	12.6402	17.4368	19.7992	25.6932	14.0470	8.9665	12.8660	16.1191	13.1620	3.1190	4.8200	7.2405	7.9724	3.6051	-0.1784	0.0226	-0.4908	0.8025	-0.3288	-2.9560	-3.6499	-3.4994
390.6250	17.6301	13.9730	30.7267	32.5254	34.2321	13.3565	25.7504	30.6714	32.1659	23.9569	14.1583	19.5968	21.4232	25.7020	13.4337	10.4957	14.1146	17.5832	14.1343	4.4621	5.9747	8.2320	9.4906	3.9113	0.0920	0.9030	0.0928	2.4137	0.4588	-3.7123	-4.4467	-3.1762
398.4375	18.1852	14.8709	33.2723	34.0529	34.8096	13.4815	28.7144	33.4202	32.5873	25.9963	16.8570	23.7415	25.5738	29.0623	16.3512	15.0702	19.4765	22.4847	17.9671	7.4546	11.2729	13.3628	14.0036	7.0422	4.3875	5.9159	4.6853	6.0895	3.4076	0.8908	-0.4187	-0.2008
406.2500	16.8078	12.9000	32.8755	32.8616	35.0681	13.5820	29.2263	33.1583	33.0141	26.7807	17.2936	26.1532	26.7415	29.9037	16.0724	17.6247	22.8237	24.8268	18.9831	8.3723	15.4020	18.3389	16.4784	7.3224	7.7553	11.1052	9.6409	8.5364	4.3323	4.5617	2.4770	1.8187
414.0625	14.4359	12.1825	30.9887	29.9166	31.9208	10.3940	28.5204	31.7105	29.5258	26.4216	17.4471	27.5047	27.5196	30.6734	17.1047	20.2457	26.8272	27.6906	20.9587	10.6433	20.2023	24.5113	19.5106	9.0655	11.0215	16.4393	15.2640	12.2165	7.1095	8.4493	6.1003	5.1320
421.8750	8.9659	7.5476	26.4826	24.9263	29.1822	7.9632	25.9314	27.8834	27.8786	24.7366	15.7854	26.6348	25.7110	28.9407	15.4206	21.1829	27.9647	28.0752	20.1637	11.8323	22.9579	28.0484	20.8612	9.1048	13.4917	20.6992	19.3114	13.8938	7.8457	11.0299	8.2413	7.0781
429.6875	9.0952	8.7738	25.5991	23.6551	28.4917	7.6122	25.8360	26.8300	26.1747	24.7052	18.0858	26.2645	25.8910	28.8742	16.4934	23.4989	29.1188	29.3573	21.6592	15.2425	25.9132	30.9808	23.0716	11.2046	17.1322	24.5799	23.5299	17.2337	11.0262	15.3625	12.4458	10.6121
437.5000	5.8789	7.2405	20.3455	18.2028	24.7193	7.9000	21.1867	20.5021	21.2798	20.3946	15.2034	21.3659	20.8514	22.9081	13.4443	20.5808	23.9534	24.3749	17.7165	14.1887	22.8112	26.7982	19.3215	9.3674	15.8972	22.7230	21.3623	15.2160	9.8422	13.9136	10.9606	9.2520
445.3125	5.4549	8.2245	17.3592	14.9481	21.8896	5.5175	19.0289	16.3706	17.6079	18.6317	15.8471	18.3782	18.3438	19.3525	12.5951	20.5663	21.6379	21.7254	16.4930	15.6790	22.2392	24.6888	17.8933	10.0053	16.6839	22.3960	20.9570	15.3919	11.3335	15.0661	12.3360	10.3894
453.1250	3.0017	7.1321	11.0455	9.2357	18.1267	6.4150	13.8279	10.0795	12.7577	15.6957	12.9130	12.8428	13.9621	13.4637	10.1288	16.0736	15.8024	16.5065	13.4411	13.0123	17.2722	19.2989	14.2861	8.4736	13.3289	17.5007	16.9873	12.4460	9.7578	11.5622	9.4026	8.5574
460.9375	3.3493	8.3274	9.6939	7.7065	16.6810	4.9777	12.1004	7.7773	10.3604	14.8373	11.5338	9.5622	12.0615	10.1571	9.8836	13.5080	12.2960	13.6188	12.1857	11.8656	13.5844	15.0230	12.2902	7.7022	11.3205	13.4383	13.5651	11.3579	9.0155	9.4083	7.8181	7.6725
468.7500	4.2075	8.0527	9.9544	7.7779	15.9581	7.6492	11.2269	7.1349	9.0873	13.6637	9.3011	7.5273	10.3406	7.7249	8.7403	10.7965	8.7138	10.5572	10.1173	9.2979	10.1391	10.5451	9.6419	5.9047	9.0092	9.5589	9.5945	8.8450	6.8534	6.7847	5.2015	4.8877
476.5625	3.5194	8.1703	10.2274	7.9016	15.8834	3.6024	10.7387	6.8106	9.1081	13.1612	7.6979	6.3873	9.9017	6.3553	8.3263	8.9187	6.5950	9.1858	8.9740	7.5714	7.1819	7.0582	7.7172	4.3152	6.7763	6.1334	5.9984	6.2500	4.8078	3.7559	2.3576	2.2788
484.3750	3.6667	8.1600	12.2230	9.6319	16.2313	6.5709	11.4271	8.4712	9.7884	13.3002	7.7910	7.6538	10.8739	7.4606	9.1262	7.9667	6.9852	10.0946	9.4355	6.3559	6.3006	6.7544	7.8431	4.3805	4.9833	4.6465	5.1901	5.5794	4.3424	2.3328	1.7314	1.7836
492.1875	2.7366	6.3669	11.2256	9.1239	16.4029	2.6002	10.2882	8.3883	11.0534	13.7590	5.8872	7.4996	11.1854	7.8465	8.0538	6.4640	7.3371	10.3813	8.9925	3.7631	5.7645	6.8553	7.4786	3.6694	4.4046	4.9602	5.0340	4.7221	3.4283	2.2766	1.2531	1.4124
500.0000	3.3185	7.2420	9.9732	8.1828	15.0145	3.6984	9.8010	8.5177	10.6405	14.0494	4.8911	8.5441	13.2885	10.3048	8.3785	7.1402	9.8382	12.9340	10.5966	4.2065	8.5581	9.6094	9.3282	4.1387	6.9903	8.3441	7.1735	5.5509	4.1384	4.6779	2.7379	2.0214
507.8125	1.0380	5.4788	8.2902	7.1897	13.8821	1.7192	8.8859	8.3000	11.8911	12.4544	4.1942	9.2311	12.6478	11.6277	7.2504	7.0960	11.5261	13.8905	10.2444	3.9753	10.2878	12.1355	10.5996	4.0139	8.8183	11.9052	9.9642	6.8217	4.2248	6.7034	4.1580	3.1007
515.6250	-0.4128	5.1017	8.2228	6.9189	12.2571	2.0694	9.5310	9.0379	10.8011	12.4880	5.2557	10.4390	13.6819	13.2086	8.1188	8.8503	14.3080	16.0936	11.6965	5.4481	13.6116	16.0905	12.7398	6.1231	10.7822	15.0722	13.7404	9.1132	6.2394	9.7549	7.2425	5.7633
523.4375	-3.4095	1.8177	5.5381	4.6137	10.4041	-0.8197	7.0688	6.8522	10.1521	11.2203	3.1744	8.7512	11.4050	11.2528	6.4843	7.8442	12.9407	14.6246	10.2518	4.2802	13.6217	16.4088	12.0107	5.6602	10.8956	15.8818	14.9504	9.3435	6.3571	10.2522	8.1099	6.3552
531.2500	-2.7715	3.6912	4.2155	2.4741	5.8768	0.2525	5.9982	5.1931	6.2760	8.1929	3.1933	6.9296	9.2994	9.8403	6.0884	7.6176	11.5807	12.8780	9.0202	4.9418	12.6699	15.5359	11.3632	5.3045	9.9897	14.4966	14.7809	9.3596	6.4387	10.1501	8.5330	6.9249
539.0625	-4.0185	2.1959	1.2250	-0.4636	4.4836	1.2468	4.7901	2.0350	4.5208	6.3218	3.2471	5.5399	5.8899	6.7278	3.9915	6.2053	9.0273	9.3360	5.8358	4.7210	10.3157	12.2137	7.8801	2.9535	8.2379	11.8972	12.0815	6.4817	3.9903	7.7601	6.2891	4.7014
546.8750	-2.4236	5.1985	1.0472	-0.4639	4.4281	1.1787	5.0101	1.7345	3.4915	7.0663	3.8438	4.9361	6.5951	7.0126	5.1443	6.7770	8.8031	8.9126	6.7167	5.7372	10.4543	11.9225	8.0165	4.2461	9.0835	11.7016	12.2407	7.3534	5.5353	8.8160	7.8082	6.1309
554.6875	-4.1689	5.4509	-3.9959	-4.3653	2.1901	2.4200	0.5482	-2.8664	1.4958	5.0357	0.3961	0.6978	3.3690	2.4322	3.2652	2.9727	3.9398	4.7923	3.9579	2.7123	5.8478	6.8830	4.5414	1.7313	5.6719	7.4606	7.5484	3.5520	2.8461	5.0119	3.9034	2.7713
562.5000	-3.3808	6.0403	-4.2802	-3.8028	1.9890	1.2865	0.7613	-2.7507	1.0665	5.2816	2.2689	0.1157	3.8329	2.5802	3.9650	3.3214	2.9607	4.5702	3.8224	3.1396	4.5169	5.0902	3.6040	0.9450	5.5727	6.0450	5.4565	2.2753	1.4559	4.2375	3.0129	1.5628
570.3125	-3.8160	4.4229	-4.8101	-4.3046	1.4438	3.1983	0.3793	-3.0342	0.8195	4.5731	1.8951	-0.0381	3.3693	1.5950	2.5304	2.5385	1.5449	3.6867	2.8636	3.1204	2.8445	3.2395	2.8004	0.2262	5.0819	4.9072	3.6636	1.2590	0.5820	3.0205	1.5279	0.2753
578.1250	-3.4172	6.6854	-4.6234	-4.4572	1.0024	0.9518	0.3705	-3.4778	-0.0549	5.0949	2.5189	-0.0807	3.5999	1.3627	2.5235	2.7042	1.9900	3.9682	2.9114	3.1075	2.4160	2.7711	2.0409	-0.1716	4.9407	4.3920	2.5753	0.4314	0.1645	2.6972	1.2037	-0.4065
585.9375	-3.3002	5.5034	-4.0892	-4.2687	1.2295	3.9171	0.9176	-3.0983	-0.0643	4.3746	2.3054	0.7647	3.4002	1.5160	1.5793	2.5561	2.5424	3.5548	2.0368	2.5316	3.1606	2.7450	0.8433	-1.5855	4.9718	4.5694	2.2169	-0.8724	-0.8661	2.6775	0.6646	-1.0971
593.7500	-2.1466	6.0843	-1.6323	-1.9358	2.4108	1.5504	2.9005	-0.4928	1.6877	5.1126	3.4135	2.6542	4.4403	3.6306	2.2095	4.4932	4.7629	5.2100	2.7351	4.0440	5.5767	5.1654	2.5998	-0.4725	7.0140	6.8080	4.3404	1.5013	0.7553	4.4433	2.4347	0.5696
601.5625	-1.8121	6.6233	-1.8179	-2.5200	0.6235	4.0158	2.5981	-0.4189	0.5015	4.1228	3.2434	3.1862	3.7350	3.9141	1.8704	4.3317	4.9628	5.6376	2.4198	4.0471	6.3824	6.1794	3.2527	-0.0507	7.4669	7.7237	5.4233	2.0747	1.1079	4.9439	2.9361	1.3736
609.3750	-3.0326	4.7206	-2.5305	-3.2305	-0.7559	0.8803	1.2667	-1.0859	0.1885	3.3372	1.8005	2.3130	2.8219	3.5230	0.4091	3.4057	4.8200	5.5048	1.8670	2.6295	6.2557	6.4419	3.0622	-0.1078	7.3015	8.2539	5.3953	1.9152	0.9319	4.9083	2.3897	0.9204
617.1875	-1.1702	6.5555	-1.4659	-1.9138	-0.0089	3.9817	1.7651	-0.1073	0.5236	3.8532	1.3623	2.1631	4.2208	5.2255	1.4139	3.7469	5.8577	7.0586	3.0751	3.1086	7.2245	7.9776	4.4498	0.6689	7.2248	8.6408	6.7236	3.0413	2.0849	4.8677	2.9569	1.5304
625.0000	-1.1588	6.2072	-2.8930	-2.4858	1.6838	1.9483	0.3292	-1.4075	1.7892	4.3559	0.6267	1.1520	3.8551	4.5617	1.1016	2.8088	5.3537	6.7261	2.8153	2.6881	6.7823	8.5276	4.6271	0.1271	7.2231	8.3657	7.3862	3.5512	2.0116	5.2830	3.5435	2.3003
632.8125	-1.5895	6.9640	-3.5946	-3.7401	0.2424	3.9127	-0.2633	-2.8789	-0.8842	3.7372	0.7719	-0.0599	3.5800	3.2266	1.8468	2.2819	4.3857	6.1282	3.4661	1.5552	6.1689	8.0244	4.8987	1.1961	5.8419	6.7497	7.4484	4.3631	2.8447	4.9056	3.9242	2.6892
640.6250	-4.6126	3.8085	-6.9287	-7.5356	-1.6797	1.0131	-2.3259	-6.8872	-3.2689	2.4261	-0.0284	-2.3620	0.7384	-0.6737	0.8015	0.8800	1.7288	2.8754	1.9103	1.2815	4.1135	4.8333	2.9316	0.2684	4.9648	5.1550	5.4926	3.2034	2.2744	3.7573	3.0286	2.0853
648.4375	-3.0806	6.3057	-7.5235	-8.0383	-1.7330	1.9483	-2.9336	-7.5164	-4.4769	3.0917	0.1291	-3.1215	1.3174	-1.2724	2.1288	0.7952	1.1555	2.3936	2.8188	2.1101	3.8002	3.9753	2.7238	0.8552	4.9806	4.8555	4.6913	3.1828	3.1934	4.4858	4.0144	3.0988
656.2500	-3.4500	5.6697	-8.0352	-8.0933	-0.7595	2.6758	-3.8799	-8.2396	-3.2134	2.9867	-1.6567	-4.0780	0.7132	-2.5025	1.2872	-1.4188	-1.2312	0.6613	1.5765	-0.9905	0.5363	1.2690	0.9066	-0.3143	1.4657	1.5359	1.3538	0.7507	1.2105	0.7627	0.7234	0.5959
664.0625	-0.6369	7.6174	-4.9463	-5.4855	0.8620	3.3238	-1.2534	-5.2766	-2.3190	4.7425	0.1835	-1.8199	2.9017	0.0806	2.9957	0.2494	0.4059	2.0060	3.0668	-0.1816	1.1985	1.9989	1.7455	0.2746	1.7347	1.0099	0.6714	1.0745	1.4498	0.7556	0.4510	0.1322
671.8750	-1.0350	6.3125	-3.8032	-5.5577	1.3355	4.7115	0.3672	-4.8573	-1.1609	4.5900	0.3456	0.3709	2.3963	-0.1045	2.2949	1.3271	1.3560	1.9506	2.7413	0.6519	2.3291	2.5372	1.7104	-0.2413	2.8035	2.2401	1.1517	1.1671	1.1608	1.1540	0.4608	0.2247
679.6875	-1.5332	5.5398	-3.1453	-6.7102	-0.8801	2.5445	1.7927	-5.0408	-3.7558	3.5216	2.4194	1.8083	1.9389	-0.1459	2.4913	4.2379	3.3236	2.6054	2.8945	3.8466	4.8746	3.9606	2.3858	0.3339	5.4350	4.6125	2.4971	1.9769	1.6701	3.1468	2.1684	1.3893
687.5000	-2.0137	4.1973	-5.6534	-8.8106	-2.3748	3.9614	-0.3506	-7.0296	-4.9953	1.4008	1.0347	0.3199	-0.0046	-1.8861	0.5299	3.1938	2.1595	0.7471	0.4805	2.9288	3.9030	2.1787	0.2947	-1.7429	4.7308	3.2596	0.8065	-0.1821	-0.6864	1.4019	-0.0411	-0.9228
695.3125	1.9213	8.6926	-1.4654	-4.4046	0.7947	5.4469	3.0365	-2.8179	-1.4071	4.5105	3.3327	3.2982	3.0140	2.3745	3.2103	5.7500	5.5488	4.1864	3.1397	5.4500	7.1228	5.3211	2.7991	0.2614	7.3142	6.1398	3.5020	2.6783	1.3535	4.4017	2.6664	1.1376
703.1250	1.5318	7.4986	-1.0467	-4.0630	1.0267	7.9317	2.8769	-2.3785	-0.7209	3.7610	1.8495	2.7564	1.8549	1.9635	1.7989	4.2336	4.1927	3.2185	1.3985	4.1700	6.1657	4.4273	1.2598	-1.7313	6.2065	5.8341	2.6992	0.5457	-0.9408	2.7372	0.5424	-0.6083
710.9375	1.4629	7.5785	-1.0557	-3.7228	1.2819	3.4812	2.1115	-2.1533	-0.5717	3.7100	1.3838	1.9516	1.5367	1.7106	1.9003	3.2758	3.6057	2.6934	0.8316	3.2105	4.9567	3.6890	0.5825	-2.7673	5.6024	4.9499	2.5897	-0.5995	-2.2901	2.2897	0.3538	-1.4049
718.7500	2.6587	9.3425	0.3210	-1.9642	2.9699	6.9028	3.0476	-1.0637	0.3680	5.3800	2.1772	2.3969	2.4327	2.5202	3.0796	2.4529	3.3304	2.9729	1.6093	2.2939	4.3544	3.9981	0.6879	-1.9726	4.7572	4.4653	3.5222	-0.1391	-1.7935	2.9021	1.5126	-0.3101
726.5625	3.2127	8.3600	0.6886	-0.7958	3.7989	3.5971	2.2960	-0.8726	1.3422	5.7381	0.3423	1.2986	1.9095	2.6705	2.1206	0.1611	1.9691	1.7841	0.9477	-0.9472	1.5670	2.7632	-0.4422	-2.9329	1.4682	1.4801	2.4935	-1.1597	-2.4154	1.1300	0.5898	-1.0053
734.3750	3.2294	8.4567	0.5164	-0.2180	3.0476	5.4435	1.1857	-0.2718	1.0049	5.2731	-1.3053	0.8042	1.7830	3.2301	2.4735	-1.4239	1.7297	1.4958	0.7146	-3.2281	0.0800	1.9852	-0.5717	-2.6470	-1.1647	-1.5794	1.4186	-1.0429	-2.0167	-1.0094	-0.3895	-1.4199
742.1875	3.5230	8.0775	1.8453	1.5104	5.2115	4.3484	3.0925	2.1930	3.6956	7.2390	0.5984	2.7593	3.2524	4.4892	3.6778	0.8548	3.4774	3.3590	2.4193	-0.9082	1.9496	3.7413	1.3975	-0.2688	0.8620	0.1443	2.8765	1.3163	0.3748	0.6751	1.1488	0.5351
750.0000	3.8269	7.8358	1.7899	1.6081	5.1554	4.9925	2.3877	2.0319	2.4590	7.0448	-0.6679	2.4255	3.8259	3.7076	4.4489	0.6210	3.2163	3.5891	3.4224	-1.5053	1.9649	3.4996	2.2087	0.7050	-0.1249	-0.2271	2.2483	2.3183	1.8420	0.4869	1.1665	1.2620
757.8125	2.0228	7.1916	-0.4978	-0.2627	5.3512	2.4167	0.1763	-0.4887	2.2917	6.0188	-2.4594	0.5477	1.9259	1.3439	2.9794	-0.8945	1.4862	1.6266	1.5732	-2.4993	0.2262	1.5396	0.8755	-0.7430	-1.1542	-1.4246	0.4562	1.6805	1.1648	-1.2420	-0.3287	0.2240
765.6250	4.4315	9.0881	2.5418	1.6436	6.1090	4.5942	2.7338	1.8485	1.9220	6.6922	-0.9185	2.2371	3.1274	3.1570	3.7544	1.4130	3.3448	2.7205	2.9604	-0.8483	2.2777	2.6495	1.8838	0.7807	0.3143	-0.3447	1.0968	2.6149	2.4225	0.0835	0.8643	1.1049
773.4375	2.4442	4.8498	2.2808	1.2801	5.7461	2.1924	2.1614	1.6770	2.2587	4.9789	-0.3875	2.2749	1.0753	2.3279	1.1659	1.7334	2.4379	1.0342	0.9107	-0.2052	2.1697	1.3588	0.5271	-0.3576	0.4856	-0.4450	-0.5998	0.7766	1.3380	-0.5102	-0.6804	-0.2777
781.2500	3.8241	5.9544	3.6143	3.0479	5.6552	3.7497	3.4837	2.8336	1.7328	4.5678	2.4987	3.4537	1.8100	3.5697	2.1809	4.4329	4.2178	1.9837	1.8365	3.4588	4.3580	2.1112	1.3554	0.4789	3.2962	1.7385	-0.3002	1.0642	1.7293	1.2033	0.0758	-0.0306
789.0625	2.2511	3.7567	1.6730	1.9475	5.6764	3.0878	1.8274	1.4475	2.6684	4.1737	1.1272	2.3718	1.0823	2.8167	0.9393	3.3607	3.4783	1.5897	1.3231	2.4241	3.5187	1.6481	0.7409	0.2133	2.9523	1.4667	-1.0313	-0.0336	0.4981	0.1490	-1.1384	-0.8385
796.8750	2.7364	5.9662	1.3691	2.3201	5.6729	1.7204	1.2211	1.9821	2.4835	5.2193	1.9751	2.3101	3.3397	4.9998	2.8814	4.2117	4.9519	4.5787	3.9087	4.4312	5.0180	4.5180	3.3504	2.0871	4.9473	3.2337	1.4230	2.0598	2.1909	2.5068	1.2067	0.8673
804.6875	-0.0622	4.4443	-2.4670	-1.1693	3.6983	2.1676	-2.6239	-1.3923	0.5349	3.6956	-2.1371	-1.1038	1.4541	2.0730	1.8344	0.6622	1.7887	2.8338	2.6154	1.4331	2.6671	3.1322	2.4326	0.7843	2.9262	2.1402	0.8285	1.0694	0.8301	0.3028	-0.6669	-0.7660
812.5000	1.3283	5.6939	-0.5657	1.1171	4.6913	0.6063	-1.4915	0.4708	1.1580	5.7239	-0.6832	-0.5303	2.8638	4.0546	3.7664	1.6270	3.0632	4.5137	4.4483	2.5049	3.5147	4.8507	3.9193	2.2575	4.6828	3.9455	3.9159	3.3601	2.4655	2.5915	2.0564	1.4635
820.3125	1.2648	3.8893	0.2975	2.9485	6.2137	2.0122	-1.5919	1.7445	3.1041	5.7715	-2.0700	-0.5515	2.1534	4.5797	3.1394	0.4804	1.9201	3.5297	3.4459	1.1604	1.8995	3.5287	2.4896	1.2091	3.1348	2.5980	3.5929	2.6559	1.6548	1.7703	1.5803	1.2553
828.1250	2.7586	5.3199	2.8457	5.6744	8.4081	-0.2834	-0.3403	4.2379	5.7629	7.2711	-1.9417	0.2693	3.2976	6.6125	4.6573	-0.0602	2.0757	4.0652	3.6461	-0.4670	0.7646	3.2950	2.2723	1.4990	0.6526	0.3185	3.0344	3.1952	2.1471	0.5065	1.1470	1.3686
835.9375	3.1920	5.1556	2.7581	5.9451	9.4214	2.4170	-0.4497	4.4891	6.6664	7.6295	-3.3116	0.2816	3.8236	6.7260	5.1318	-2.1842	1.4025	3.6946	3.4543	-2.7634	-0.9306	2.0228	1.4562	0.6478	-2.3348	-2.9846	1.1562	2.3006	1.6793	-1.9703	-0.8539	0.1821
843.7500	4.0155	5.8331	2.7131	5.9615	10.4079	0.6121	-0.4624	3.9662	6.5054	9.0773	-4.0456	-0.3249	4.5166	6.0155	5.3005	-2.6219	1.0385	3.4977	3.9310	-3.7254	-1.3825	1.4930	1.2740	0.6695	-3.2125	-4.2284	0.0210	1.3672	1.1635	-2.5970	-1.1528	-0.2040
851.5625	5.9044	7.1942	4.2126	7.0944	10.8061	5.3073	1.0051	4.4220	6.3796	9.5135	-2.4865	0.6411	4.9984	5.7922	5.5668	-1.2359	1.7077	3.6266	4.2329	-2.8908	-0.6053	1.6371	1.2693	0.5075	-2.6751	-4.1322	-0.4820	0.5890	0.2684	-2.6116	-1.3492	-0.8579
859.3750	4.8130	6.0965	4.0276	6.3800	9.7605	1.8804	1.7648	4.5110	6.5073	8.0042	-1.4568	1.6978	3.9904	5.9807	4.4923	0.1811	3.3003	3.7422	3.5101	-1.2936	0.5189	2.0362	1.3480	-0.0263	-1.4014	-3.3729	-0.6565	0.5544	0.1273	-2.4524	-2.0678	-1.5718
867.1875	4.8051	6.2444	4.3639	5.6154	8.3826	4.6942	3.1155	4.5400	4.5699	6.7917	-0.0261	3.0608	3.8890	6.2766	4.5041	1.7260	4.4597	4.6891	4.3067	0.1084	2.7492	3.1993	2.8355	1.6573	-0.0141	-1.7430	0.2240	2.2284	2.1495	-1.0559	-0.5037	0.3179
875.0000	2.8934	4.5318	3.3046	3.4002	7.0419	2.5056	2.7322	2.5109	3.9276	5.8232	0.8647	2.7026	2.0971	4.0051	3.1944	2.7150	3.6791	3.3359	3.1932	1.7677	3.2641	2.9339	2.3957	1.4349	1.7365	0.0559	0.4938	2.1480	2.3758	-0.2480	-0.3250	0.6985
882.8125	0.2016	3.2112	1.2895	0.8485	3.3170	1.4873	0.7794	0.2185	0.0795	3.6114	-0.3146	0.3963	0.2213	1.9127	2.6644	2.0954	1.9907	1.8022	2.2400	2.3394	3.1202	2.4709	1.4322	1.2619	3.0383	1.0286	0.2073	1.2983	1.1101	0.6175	-0.4336	-0.3940
890.6250	-2.2884	0.8807	-1.2320	-1.2214	2.4753	0.1658	-1.5087	-1.8776	-0.0135	2.8585	-0.8906	-1.3569	-0.7762	0.8913	2.1408	1.5083	1.2318	1.3827	1.7940	2.3253	2.8341	2.3961	1.7465	2.0020	3.2243	1.8347	0.3826	1.7531	1.5345	0.5459	-0.3605	0.1434
898.4375	-1.8086	3.4340	-3.3813	-2.9788	0.5039	1.7595	-2.6192	-3.4160	-2.2915	2.5391	0.4048	-1.9275	0.1828	1.6839	3.4957	2.6706	2.5300	2.6470	3.3936	4.8993	4.3641	3.7656	3.4528	3.8456	5.9538	3.4699	1.8146	3.3238	3.8865	2.9131	1.6071	2.0247
906.2500	-5.0839	0.5677	-8.8414	-7.7372	-2.0962	-0.6024	-6.6450	-8.4283	-4.3513	-0.1813	-3.5576	-5.9827	-3.0182	-2.0734	0.8617	-1.0618	-0.9207	-0.4320	0.7598	1.8109	1.1097	1.3148	0.7289	2.0878	3.2597	1.3833	-0.2358	0.5509	1.7081	0.1663	-1.2481	-0.6897
914.0625	-3.1341	1.6672	-6.9603	-5.7889	-1.3755	-2.4096	-5.7569	-7.0573	-4.6501	0.7759	-3.6597	-5.8488	-1.9067	-1.4928	1.6359	-1.1286	-0.6755	0.5492	1.4799	0.9505	1.5042	2.6767	1.5659	2.5118	2.4587	1.6454	1.7276	1.8593	2.2198	0.7842	0.3963	0.3170
921.8750	-2.5313	1.1857	-5.1974	-4.5010	-0.1594	-0.9489	-5.5946	-5.8507	-3.8802	0.8226	-4.1228	-5.5714	-3.5653	-2.5426	0.4052	-2.2234	-2.1771	-1.2393	-0.1827	-0.3514	0.1665	1.6994	0.3670	0.5587	1.2228	0.7010	2.0119	1.1865	1.1228	0.3048	0.3557	0.4709
929.6875	0.9782	3.9743	-0.3878	0.3284	1.6957	0.5764	-2.0631	-0.8784	-1.6432	2.8253	-0.9479	-3.2552	-1.8909	0.9966	2.7057	0.0818	0.0822	0.6715	1.3854	2.1968	1.6333	3.2196	1.9565	1.5703	2.6639	1.5878	3.6048	2.6967	2.1035	2.0646	2.2142	2.0812
937.5000	1.2037	2.7861	-0.4400	1.6524	4.2100	2.2186	-2.3206	-0.3911	1.2266	3.5832	-2.8714	-3.5137	-1.6454	1.6255	2.5111	-1.9665	-1.3404	-0.0060	0.2932	-0.8476	-0.9077	0.7045	0.2101	-0.5574	-0.3978	-1.5890	0.9703	0.1315	-0.7286	-1.0897	-0.6565	-0.9208
945.3125	3.3833	5.8040	1.4709	3.8259	6.4327	1.2246	-0.6004	1.4226	3.4814	5.6610	-0.9349	-1.6150	0.9815	3.4406	3.3940	-0.6012	-0.1072	0.7824	1.7082	-0.3920	-1.3820	-0.3530	0.0977	-0.3869	-1.4606	-3.3431	-0.5725	-0.5465	-1.0160	-2.2832	-1.2197	-1.5489
953.1250	3.5102	4.7826	2.5848	4.3708	6.7881	3.1230	0.0808	2.5252	4.1591	5.8505	-1.3216	-0.4696	1.8880	2.3933	3.3303	-1.7389	-1.5502	-0.3349	1.6414	-2.0554	-3.2251	-2.8968	-1.4297	-1.1914	-3.5086	-6.1781	-3.2338	-2.3541	-2.1557	-4.1477	-3.0041	-2.7764
960.9375	3.5300	3.9668	3.5564	4.6659	7.3172	-0.1963	0.8856	2.8145	4.5759	6.5722	-2.4028	-0.4814	2.3099	1.5216	3.6797	-2.9431	-2.8635	-1.0350	1.5636	-3.6390	-4.6873	-4.4349	-2.3137	-1.5888	-5.1261	-8.1241	-5.2022	-3.5685	-2.7327	-5.2588	-4.2213	-3.7619
968.7500	5.6946	5.3675	4.5831	4.5097	6.7276	4.3291	1.4334	2.1507	3.5456	6.1893	-2.3885	-1.0327	1.3455	0.7550	3.2774	-3.1956	-3.3046	-1.5650	1.3171	-3.4071	-4.7887	-5.1402	-2.7819	-1.1014	-4.9793	-8.5973	-6.0354	-4.0451	-2.9384	-5.7491	-4.8957	-4.6613
976.5625	6.9025	5.4769	6.1088	5.8706	8.0540	2.1302	2.4597	3.4237	4.8822	7.1200	-0.9747	-0.3134	2.7609	3.0387	4.7964	-1.0899	-0.9003	1.2313	3.7979	-1.3917	-2.4599	-1.8915	0.1797	0.9628	-2.6694	-6.3201	-3.9037	-1.3793	-0.4496	-3.7793	-3.0159	-2.5118
984.3750	6.6343	4.5738	6.1853	6.3390	7.8816	4.5252	2.4693	3.7684	5.0179	7.2622	-0.9177	-0.1787	3.3302	4.5971	5.0865	-0.3947	0.7944	3.0436	4.8437	-0.5072	-0.7397	0.3252	1.7027	1.8918	-1.9442	-4.9467	-2.6844	-0.5541	0.0349	-3.8094	-3.1098	-2.4124
992.1875	4.3770	2.9203	3.0074	3.9370	6.6886	1.3381	0.2147	0.9662	3.9928	5.9487	-1.9649	-1.7284	1.2993	2.4334	3.1344	-0.9477	0.2095	1.4004	2.8833	-1.0756	-0.9100	0.0124	0.1221	0.7775	-1.8632	-4.2923	-3.1344	-1.8386	-1.5806	-4.4844	-4.2229	-3.9958
1000.0000	1.4044	1.2417	0.4158	1.1125	3.8701	1.3096	-0.9635	-0.6238	0.7777	3.8129	-1.1971	-2.1346	0.1361	1.5214	2.8693	0.7180	1.1390	1.1053	2.9201	0.9713	1.8424	1.6805	1.1810	1.9963	1.2964	-1.1317	-1.2452	-0.0365	0.4644	-1.2131	-1.8554	-1.6779
1007.8125	-0.9871	-0.9816	-1.5115	-0.9329	1.7953	-1.1060	-1.8157	-1.9002	-0.1064	2.7324	0.0225	-2.0251	-1.3552	0.0772	1.5040	2.1687	1.0120	0.5993	1.9916	3.4720	3.3605	2.0661	1.5192	2.3711	4.4274	2.2489	0.2108	1.3254	1.5047	0.7705	-0.7257	0.0390
1015.6250	1.0247	1.5446	-1.6920	-1.0991	-0.2904	2.1461	-2.1341	-2.6594	-3.0657	1.7552	0.4655	-2.8256	-1.6862	-0.4169	1.9813	2.2583	0.4757	0.0988	2.0280	3.5259	3.5551	2.2613	0.9343	1.6902	4.2497	2.9140	0.9397	0.9775	0.7376	1.2345	0.0850	0.0136
1023.4375	-2.3862	-2.2249	-4.7099	-3.8048	-1.2499	-0.0895	-4.6898	-5.7627	-4.3062	-0.2329	-1.5668	-5.1264	-4.7306	-2.9186	0.3000	0.3568	-2.0146	-3.1190	-1.1319	2.2268	1.4372	0.1605	-2.0395	-1.0505	3.1530	1.9256	-0.5559	-1.6373	-1.9827	0.2189	-1.0858	-1.9774
1031.2500	-1.4810	-0.3828	-2.6011	-1.1824	0.3681	-1.3154	-2.6685	-3.1173	-2.7529	1.8770	0.7530	-3.5815	-2.7016	-0.3697	2.6759	2.2284	-0.0023	-1.2528	0.7002	4.9662	3.0507	1.7798	-0.7259	0.5144	5.0552	2.6712	1.0353	-0.0740	-0.1783	1.8381	0.9347	-0.2163
1039.0625	-0.5062	-0.0693	-1.8104	0.1315	2.4027	-0.4679	-2.7730	-2.1378	0.1440	2.8143	-1.5852	-4.2594	-2.8956	-0.3375	2.0034	-0.6938	-1.7690	-2.2369	-0.2764	1.0027	0.2352	-0.5888	-1.9873	-0.5978	1.4718	-0.5248	-0.6359	-1.3619	-1.1333	-1.1295	-1.2392	-1.6965
1046.8750	3.8692	2.6442	2.9397	4.4150	6.0149	0.9489	0.6405	1.9826	2.6769	5.6897	-0.4442	-2.2461	0.3273	3.0358	3.9979	-0.2387	-0.5221	-0.0258	1.3204	0.9113	-0.2021	-0.2366	-0.7844	-0.2504	0.9327	-1.6404	-0.6067	-0.7990	-1.2133	-0.4208	-0.5929	-1.2817
1054.6875	3.4349	1.1695	2.1408	4.5876	8.0365	2.0028	-0.3942	1.6661	3.8409	5.8352	-1.3950	-2.5021	0.6746	1.8695	2.6391	-2.2999	-2.3171	-1.0759	0.5921	-1.2564	-2.8435	-2.4566	-1.7777	-2.3333	-2.2156	-4.8621	-2.7168	-2.0850	-2.7676	-3.7029	-3.3732	-3.1919
1062.5000	5.2492	2.5462	3.1092	5.4172	8.3821	0.0016	0.5291	2.9061	4.2510	7.0014	-0.8804	-1.3682	2.5008	2.4276	3.7861	-1.5512	-1.7440	0.6206	2.5490	-1.0124	-2.6519	-2.0142	-0.3305	-0.4918	-2.4442	-5.3598	-2.2579	-0.4609	-1.0990	-3.1293	-1.9826	-1.7060
1070.3125	5.8285	2.2590	2.9649	4.4097	7.7244	3.8086	0.7953	2.3391	3.8347	6.3489	-0.6166	-1.0072	1.5647	0.9242	3.0825	-1.7283	-2.6540	-0.4132	1.5459	-0.6442	-3.9452	-3.6388	-1.5242	-1.4685	-3.3019	-7.4536	-4.2061	-2.4429	-2.5041	-4.6372	-3.5320	-3.2319
1078.1250	6.7292	3.6012	3.6535	5.2216	7.7800	2.7302	1.6417	2.8865	4.0421	6.1735	1.3696	-0.4680	2.0697	2.1370	3.4928	-0.3900	-1.5045	0.1855	2.1219	0.6853	-3.1847	-3.2118	-1.0448	-1.2112	-3.3050	-7.6542	-4.9210	-2.3759	-2.2882	-4.9762	-3.8181	-3.3158
1085.9375	5.0886	1.6023	2.1766	3.8408	6.7057	4.1748	0.5315	1.5859	4.0064	4.8390	0.2613	-1.6793	1.8273	2.3695	3.0548	-1.0922	-1.6626	0.2180	2.0511	-0.1394	-2.8980	-3.0523	-1.0305	-1.2763	-2.9701	-7.0674	-5.0845	-2.7344	-2.7274	-4.9638	-4.2957	-3.9405
1093.7500	4.5511	0.0464	2.2793	3.3646	7.2833	0.6635	0.7781	1.4938	4.1046	5.8494	0.7328	-2.1003	2.6464	2.6582	3.3316	-0.0750	-0.4598	0.9104	2.7983	0.7235	-0.8485	-1.5331	-0.5938	-1.0046	-0.8746	-4.6067	-3.4292	-2.6426	-2.8241	-3.1131	-3.0522	-3.2916
1101.5625	5.2757	-0.1161	3.6457	3.4077	6.3912	3.7137	2.7354	2.5282	3.4700	5.3874	1.9187	0.0439	3.4780	3.8333	3.5844	1.9958	1.5872	2.1801	3.1232	2.2006	1.5727	0.5198	0.5179	0.1713	0.8006	-2.4940	-2.0594	-2.2072	-2.2997	-2.0296	-2.4091	-2.7414
1109.3750	4.7739	0.6922	2.9982	2.4359	4.9759	2.0439	2.8862	1.9327	2.9091	4.5335	2.6223	0.6860	2.7781	3.3375	2.4166	2.9908	2.2558	2.4350	2.8736	2.8276	2.3791	0.9316	0.6283	0.1786	1.7386	-1.0163	-1.7302	-2.2007	-2.3998	-1.6695	-2.4056	-2.9820
1117.1875	4.1448	1.0580	1.1454	0.5795	1.5686	4.4169	1.3446	0.6679	0.3312	2.4907	2.4245	-0.0362	1.0284	3.1285	1.9372	3.1419	2.2298	1.6123	2.1403	3.2869	3.0596	1.1533	0.1602	0.3835	2.4948	-0.0221	-1.0646	-2.3988	-2.0954	-0.4560	-1.3293	-2.7415
1125.0000	-0.3503	-3.4192	-2.5101	-2.5275	-1.5151	-0.6039	-1.7314	-1.4465	-0.2986	-0.1291	0.9686	-1.3593	-1.9906	2.1709	-0.3255	2.5493	1.3445	-0.1337	-0.0850	3.5813	2.7089	1.2116	-0.9524	-0.1642	2.8786	1.0963	-0.2703	-2.1363	-2.3234	-0.0465	-1.0992	-2.5129
1132.8125	-0.4420	-1.6463	-4.0242	-3.6309	-3.5707	0.7631	-3.0095	-2.7339	-2.9616	-1.0300	0.4931	-2.8517	-2.3135	0.6174	0.1187	1.6166	0.0364	-0.5506	0.4415	2.9051	2.1203	1.5474	0.0917	1.0571	2.3737	1.1907	1.3496	0.1694	-0.3929	0.7285	0.6963	-0.8671
1140.6250	-1.3477	-1.7023	-7.1716	-7.1384	-5.2783	0.5890	-5.7024	-7.1271	-5.7587	-2.6789	-2.1401	-6.8714	-5.4993	-4.6375	-1.3767	-2.6234	-4.6546	-3.9362	-1.7841	-0.6901	-2.2793	-1.9259	-1.6195	0.2073	-1.1307	-2.5834	-0.1459	0.5003	0.1840	-1.7267	-0.2768	-0.5777
1148.4375	0.6740	0.5789	-5.9501	-5.8976	-4.8385	0.8835	-5.5193	-7.1411	-6.9885	-1.6958	-1.7568	-8.0600	-4.8635	-4.4626	-0.3474	-3.5233	-5.4138	-3.8998	-0.9895	-0.8989	-3.7615	-2.5796	-1.1829	0.8184	-2.0159	-4.3315	-0.2528	1.9944	1.6780	-1.6473	0.7128	1.1078
1156.2500	0.0865	-1.8142	-6.3324	-4.9753	-2.7888	1.1573	-6.3903	-6.8515	-4.6970	-0.8855	-3.3203	-9.0750	-5.0644	-4.9348	-0.9789	-5.9686	-7.4954	-4.9727	-1.5111	-2.9965	-6.6318	-5.1139	-2.3867	-0.2296	-3.9620	-7.0881	-2.5062	0.7523	0.7778	-3.3444	-0.9518	0.0388
1164.0625	2.1518	0.5762	-3.8625	-2.2338	-0.9357	0.9148	-5.0614	-4.1904	-3.2829	1.2851	-3.5697	-8.4470	-2.2280	-3.2910	0.9550	-6.3802	-7.5144	-3.2226	0.3274	-3.4664	-7.7716	-5.7971	-1.8224	0.7787	-4.9655	-9.1237	-3.8794	0.9029	1.5804	-4.2885	-1.1485	0.0960
1171.8750	1.7141	-1.0276	-3.5713	-2.2793	0.2512	0.5921	-4.8415	-3.9643	-2.1772	1.7939	-5.2747	-7.2440	-2.5708	-4.0816	0.4720	-7.2696	-8.2114	-4.6697	-0.5554	-4.6817	-8.8763	-8.0232	-4.0185	-0.9010	-6.4657	-11.1236	-7.1755	-3.0789	-1.5689	-6.7821	-4.3542	-3.2339
1179.6875	4.4789	0.7244	0.1111	0.5355	3.2370	1.4380	-0.7158	-1.0019	0.0139	4.0682	-1.4857	-3.3540	0.3469	-0.6344	3.2031	-3.7388	-4.6770	-2.9750	1.4598	-1.8978	-6.2666	-6.6745	-3.9360	-0.1401	-4.2380	-9.8533	-7.5835	-4.9724	-2.8585	-5.7564	-4.5085	-4.4465
1187.5000	4.3099	-0.3035	0.6111	1.2785	4.7054	3.7400	-0.2681	-0.2614	2.2244	4.2646	-1.4855	-2.6989	0.2401	-0.1943	2.0237	-3.8745	-4.6452	-3.7042	0.2319	-2.9921	-6.3760	-7.4657	-6.2701	-2.5082	-5.2062	-10.2490	-9.6350	-8.3059	-6.1836	-7.6319	-7.0197	-7.4775
1195.3125	6.3873	1.4265	3.2193	3.6450	4.9664	2.6558	2.4611	2.3639	2.9589	5.7703	0.9686	-0.6082	1.5670	1.9780	2.8975	-0.9203	-1.7862	-2.0435	1.3961	-0.7130	-3.4450	-5.0838	-5.0269	-1.6840	-3.1585	-7.6528	-8.1238	-7.3983	-5.1457	-5.7030	-5.4359	-6.0219
1203.1250	7.6649	2.2369	4.8875	4.1438	5.7947	6.7697	4.5602	3.6435	3.1568	5.9072	2.8115	1.8209	2.1038	3.0523	3.3403	1.4965	0.1960	-0.6289	1.8296	1.7897	-0.7710	-2.7348	-3.6691	-1.2347	-0.5689	-5.0794	-5.9381	-6.6682	-4.7241	-3.9069	-4.4509	-5.4153
1210.9375	7.0393	2.0533	5.5121	4.1809	5.8073	3.2071	5.2550	4.7178	3.8300	5.9521	3.6984	3.7317	3.3053	4.6616	3.3185	3.6279	2.9584	1.7942	2.8705	3.7160	2.2440	0.3876	-1.3790	-1.0130	1.7387	-1.9049	-2.9139	-4.4916	-3.6988	-1.2691	-2.1702	-3.8422
1218.7500	5.0510	-0.9427	2.8729	2.5043	3.2476	3.8787	3.3026	3.4692	3.1351	4.2214	2.4819	3.5319	3.3263	4.9367	2.4770	3.0535	3.4175	2.2821	2.7109	2.3740	2.7890	1.8710	0.0024	-0.6416	0.8492	-1.1998	-0.9444	-2.5392	-2.8773	-1.2547	-1.5407	-2.5005
1226.5625	3.9397	-2.3786	1.7223	2.2301	3.4900	0.1322	1.8691	2.8591	3.8888	4.3612	2.0505	2.8494	3.3632	4.9672	2.3397	2.8139	3.7356	3.2917	3.3893	2.2686	2.9786	3.8236	1.5518	0.3778	1.0164	-0.3633	1.4705	0.0105	-1.2263	-0.4975	0.0809	-0.8575
1234.3750	4.9883	0.1863	1.2128	0.8088	1.6409	3.7840	1.0555	0.5796	0.2318	2.7264	2.3004	0.3342	1.0947	1.9237	1.9306	1.5827	1.4778	1.7218	2.5613	1.9505	1.8822	3.2988	1.6369	0.6864	0.2145	-1.5698	2.0624	0.9172	-0.4404	-0.2325	1.4797	0.6287
1242.1875	3.7758	0.0112	-1.1596	-1.7316	-0.5232	1.8654	-1.5372	-2.8001	-2.5936	0.9800	-0.2070	-3.7583	-2.4959	-1.9732	0.6966	-1.4839	-1.9465	-1.3693	0.6501	-0.6321	-1.5574	0.8000	0.1792	0.1401	-1.8479	-3.8641	0.8459	0.5571	-0.4905	-1.4966	0.9062	0.6737
1250.0000	4.6046	0.4656	-1.1781	-1.2314	-0.9520	3.3325	-2.3431	-2.1928	-2.8086	0.9131	-0.7956	-4.1872	-1.7144	-0.5451	0.9547	-2.0483	-1.3773	-0.8815	1.8507	-0.7625	-1.5872	0.8030	0.6898	1.2595	-1.9463	-4.1725	0.6137	1.2908	0.4954	-1.2227	1.0802	0.7486
1257.8125	4.8814	-0.6458	-1.5395	-0.9169	0.2845	1.8953	-2.9644	-2.1583	-0.6677	1.2594	-1.1883	-4.2589	-1.9044	-0.2104	0.2728	-2.1753	-1.6959	-0.7993	1.5381	-0.3568	-1.9306	0.3331	0.3874	1.1094	-0.7585	-3.2264	0.0394	0.6471	0.2036	-1.1594	0.6239	0.1526
1265.6250	6.0165	-0.6039	-0.6207	-0.0109	0.7865	2.2164	-2.5166	-1.7519	-1.4496	1.9232	-2.0656	-4.3277	-0.7760	-0.1330	1.6638	-2.1079	-2.1879	-0.5096	2.6748	-0.2513	-2.2951	-0.5683	0.8154	2.4201	-0.0596	-2.9178	-0.5704	1.6544	1.7149	-0.4875	1.1958	1.0841
1273.4375	6.4471	0.1870	-0.7114	-0.4835	2.3253	3.0646	-2.3616	-2.4135	-0.4597	2.7018	-2.4611	-4.3086	-1.5532	-1.6343	0.8058	-3.0584	-4.2087	-2.8961	0.8190	-1.0797	-4.3368	-4.7596	-2.1794	0.2046	-1.5281	-5.0990	-4.4984	-2.0001	-0.8390	-2.9413	-2.0204	-1.8816
1281.2500	9.3168	2.2033	1.7293	2.3750	4.2880	4.6500	0.0025	0.1207	0.9179	5.0106	-0.6488	-2.1925	1.3888	0.9620	3.0166	-0.8373	-2.6014	-1.1852	2.2942	0.3113	-3.1271	-4.3523	-2.0341	0.6839	-1.1313	-5.4932	-5.8675	-3.0494	-1.4268	-3.0354	-2.2496	-2.4929
1289.0625	7.4117	-0.7592	1.4952	3.0558	6.4800	3.3265	-0.5605	0.3898	3.1047	6.1996	-1.4922	-2.0357	1.9868	0.8829	3.1296	-1.7658	-2.9325	-1.7958	2.0458	-0.9106	-4.1425	-5.5715	-2.8968	-0.2115	-2.6187	-7.1114	-7.6361	-4.0615	-2.1569	-5.2161	-4.4868	-3.8072
1296.8750	8.4251	0.1524	4.7829	5.9508	8.3238	2.7313	2.6144	4.1640	4.9917	8.1348	1.6506	0.9907	4.4266	4.4848	4.9342	0.7785	0.0474	0.5934	4.1516	1.1876	-2.2843	-3.5951	-1.3878	0.5257	-2.2631	-7.0639	-6.4312	-2.9010	-1.4118	-4.5737	-3.9269	-3.3218
1304.6875	8.7826	-1.2020	6.5170	6.4357	8.8980	5.9550	4.9881	5.7522	6.4890	7.3687	2.6106	2.8960	4.0036	4.4569	3.9344	1.5580	0.0916	0.3075	3.0765	0.7394	-2.2735	-3.2286	-2.3057	-1.2477	-2.7878	-6.9979	-6.2195	-3.8368	-3.0497	-5.5928	-4.9081	-4.3297
1312.5000	13.7214	3.7825	10.9151	9.8379	10.4196	7.8323	9.1165	9.9266	8.2973	9.6600	6.1473	6.8587	6.6817	7.5474	5.5115	4.5479	3.2014	3.2040	5.1060	2.5770	0.8582	-0.4852	0.1077	0.0097	-0.4522	-3.6607	-3.4243	-1.9212	-1.3649	-2.9396	-2.1121	-2.3123
1320.3125	11.6042	1.1391	10.1655	8.8374	8.6976	9.1821	8.1385	9.0239	7.6256	7.6009	4.7817	6.8786	5.7165	6.6335	4.2123	3.8599	3.0645	2.6459	4.0940	1.2322	0.9592	-0.3318	0.0986	-0.8041	-1.0407	-3.4944	-2.9026	-1.7542	-1.9073	-3.0311	-2.3409	-2.3015
1328.1250	11.1334	0.5982	9.7254	8.0273	8.5987	6.0382	7.6714	7.6139	6.7404	7.2880	4.5797	5.0698	5.7914	5.4322	4.4325	3.3187	2.7489	2.9364	4.5966	0.9763	1.0061	-0.0525	1.2281	-0.2658	-0.5373	-2.7576	-1.8279	-0.5190	-0.8974	-2.2076	-0.9030	-1.1911
1335.9375	10.8477	-0.2446	7.8601	6.1218	7.9668	7.4457	5.1131	5.3085	4.7729	6.8381	2.1413	2.4823	4.5139	3.2676	3.4770	1.0356	0.4158	1.7248	4.0035	-0.7342	-0.6594	-1.3062	0.6864	-0.5265	-2.0351	-3.6294	-3.0338	-1.4023	-1.9845	-3.4027	-2.0161	-2.1360
1343.7500	10.9805	-0.1921	6.6990	5.4820	6.8873	3.4842	4.1411	4.8493	4.4247	6.8548	2.2743	2.6153	4.6157	4.1989	4.1756	1.8607	2.1722	3.2965	4.7908	1.0823	0.9502	1.4827	3.0958	1.2919	0.7928	-0.4786	0.0313	1.5098	0.2270	-0.3548	0.7179	0.3877
1351.5625	11.1221	-1.1025	4.8751	3.5559	3.3236	5.9658	3.3723	3.6098	2.0409	4.0119	1.6512	2.1270	3.0566	3.9432	2.9970	1.8284	2.3397	3.4560	4.2978	2.0191	1.6163	2.5677	4.1431	2.0277	2.0996	0.4769	1.8743	3.3691	2.2237	1.3726	2.5366	2.2561
1359.3750	10.3632	-3.5290	3.9847	2.4340	1.6981	3.2765	2.4346	2.0061	1.1289	2.9907	1.3097	0.2372	1.0598	2.1882	1.5322	1.0347	0.9376	2.0155	3.6292	1.3780	0.3857	1.6598	3.5394	2.2333	1.5871	-0.3567	1.1607	3.1278	2.7465	0.8807	2.3872	2.5957
1367.1875	10.7294	-4.1530	3.4441	1.9785	1.5823	4.3245	2.4101	0.9718	-0.1442	2.8993	1.8362	0.1293	0.7407	1.2120	2.7858	1.6122	0.7067	1.0031	3.6010	2.0918	0.7796	0.4453	2.4002	3.5497	2.5337	-0.1181	0.3460	2.2750	3.3354	1.6515	2.8042	2.6121
1375.0000	8.2259	-6.9588	-0.2241	-1.1426	-0.3241	-0.1835	-0.8437	-2.3934	-2.0941	0.9271	-0.8825	-2.5388	-2.8672	-2.5103	0.7861	-0.8180	-2.9231	-3.6046	0.1887	0.5064	-2.3173	-4.2256	-1.8764	1.9392	0.2155	-3.2323	-3.8872	-1.5055	1.2518	-1.3317	-0.2771	0.0758
1382.8125	9.7831	-4.4582	0.6820	-1.1010	-1.6923	3.1111	-0.6416	-2.4490	-4.5204	0.5827	-0.4908	-3.4495	-3.2042	-2.5286	1.2860	-1.0542	-3.3670	-4.0910	0.5353	0.0600	-2.7924	-5.1799	-2.6600	1.7148	-0.4836	-4.6925	-5.1366	-1.8393	1.1737	-2.3238	-1.0806	-0.6392
1390.6250	11.4089	-3.4275	1.9371	0.2533	0.5739	4.8408	0.5279	-1.5126	-1.8987	1.6242	-0.5627	-2.3989	-2.2075	-2.2009	1.0726	-0.7040	-3.0877	-3.8652	0.3499	-0.1251	-2.9279	-5.0076	-2.7796	0.2281	-1.0783	-5.1242	-5.3145	-2.3696	-0.4913	-3.1355	-2.4299	-2.2033
1398.4375	14.1905	-2.5119	5.7289	4.2812	3.1521	5.3519	3.4364	2.9085	0.7709	4.0342	1.5871	0.9285	0.8963	1.5317	3.3048	1.2977	-0.4021	-1.0775	2.4967	1.4699	-1.3109	-2.9530	-0.9233	0.6287	-0.6526	-4.2552	-3.9042	-1.4693	-0.6406	-2.2286	-1.3992	-1.6404
1406.2500	13.5693	-4.0004	6.0723	5.2075	5.5708	5.6260	3.8996	3.9285	3.4571	5.3538	1.8349	1.8205	1.8212	2.0780	3.0677	0.6548	-0.4470	-1.1855	2.2795	0.5551	-2.4976	-3.6203	-1.6019	-0.4735	-2.1383	-5.2355	-5.0726	-2.5786	-2.0982	-4.2782	-3.2361	-2.7830
1414.0625	15.3219	-0.8596	7.2175	6.1392	5.5416	6.8377	5.0577	4.9940	2.9532	6.6519	3.2354	2.7924	4.1033	3.8162	5.2380	1.8324	1.0146	0.9196	4.0847	1.1457	-0.9458	-1.7725	-0.1791	0.6148	-1.5323	-4.8776	-3.9900	-1.6879	-1.4968	-3.3600	-2.3152	-2.1271
1421.8750	12.7954	-2.9665	4.4903	3.7585	3.7083	6.7098	2.7439	2.2693	1.6062	4.8486	1.4644	0.6720	1.2943	0.7403	3.0945	-0.0288	-1.2414	-1.6364	1.8601	-0.1073	-2.1783	-3.2245	-1.8815	-1.5840	-1.9769	-5.1766	-4.3148	-3.7133	-3.3535	-4.0131	-3.4423	-3.9026
1429.6875	14.0892	0.3624	5.6925	5.2607	5.0724	7.3249	3.9621	3.3017	1.6307	5.5049	3.2779	0.1945	1.7171	0.7179	3.5216	1.0176	-1.7263	-1.7958	2.2951	1.5620	-2.0272	-3.3977	-1.8882	-0.9508	-1.1060	-4.3053	-3.6487	-3.0472	-2.1746	-2.5425	-1.7073	-2.4888
1437.5000	12.0566	-2.2787	4.7095	4.3083	5.1972	8.9820	4.0101	3.1239	2.3859	4.8534	3.3946	0.9349	0.8729	0.6461	2.1659	0.6630	-1.8535	-2.3654	0.9800	0.4848	-2.0116	-3.5761	-2.3597	-1.3405	-2.2809	-4.5267	-3.5782	-3.1232	-2.4710	-3.6456	-1.9866	-2.2821
1445.3125	12.3443	-1.1568	5.8227	4.5988	4.7992	7.2099	5.9141	4.6946	2.2075	5.3594	4.9387	4.1561	2.1908	3.3492	2.1690	3.7332	2.2069	0.5365	2.1296	2.7297	1.6549	0.0246	0.1972	-0.0625	0.7695	-0.6624	0.0871	0.1696	0.0101	0.2440	1.4941	0.6567
1453.1250	9.7939	-2.5171	3.6567	2.6646	3.4750	8.8416	4.0279	2.9351	1.1090	3.8015	2.9938	3.6785	1.5571	2.7673	1.5787	3.7130	2.5733	0.9418	1.8518	2.6502	2.8542	1.4100	0.9543	0.1684	3.1981	2.2216	1.8543	1.4148	0.9096	2.7971	3.4105	2.2978
1460.9375	7.6156	-3.9685	2.9722	3.1995	4.1081	3.8041	3.6576	3.4985	2.9044	5.3804	2.8106	4.0551	3.7100	4.5447	3.2254	4.4212	4.5409	3.3515	4.0576	3.1244	4.2703	3.7857	3.1106	2.0953	3.9146	3.2611	3.8549	3.5597	3.0965	3.6393	5.0313	4.3926
1468.7500	7.2686	-5.2861	3.1807	3.1089	3.7680	6.1755	3.4181	3.8613	2.9980	4.7438	2.4175	4.6327	3.8127	5.3493	2.5950	4.4909	5.0940	3.7067	3.8371	3.3608	4.2447	4.2246	2.9703	2.2388	3.5982	2.9355	3.7823	2.9624	2.7474	3.1112	4.3155	3.9002
1476.5625	6.9189	-4.8347	3.5990	3.5721	4.1124	3.6727	3.6849	4.9706	3.7712	4.6633	3.0679	5.8068	3.6433	6.4807	2.6570	5.7815	6.4298	4.9585	4.3871	4.9000	5.6098	6.0979	4.3860	3.4409	5.7663	4.5579	5.0307	4.4052	4.1414	4.8270	5.6665	5.0435
1484.3750	7.0529	-4.4962	3.5054	3.4494	3.2726	5.3557	3.4962	5.3842	2.8197	3.8473	2.4109	6.1861	4.0534	7.2490	2.6667	5.4015	6.9743	6.0609	5.1281	4.6205	6.0769	7.2075	5.6354	4.4562	4.7743	4.1169	5.6650	6.1003	5.5628	3.9724	5.5682	5.5376
1492.1875	6.8164	-6.2763	2.4947	2.5933	2.9779	2.9124	1.3549	3.7009	3.1602	3.5428	0.6060	3.8650	3.0085	5.7483	1.2090	2.8562	4.9734	4.9295	3.9850	1.6981	3.5536	5.7765	4.8967	3.7890	2.0635	1.8548	4.2891	5.4716	4.7449	1.7086	3.7295	4.1564
1500.0000	9.2384	-2.8984	3.2943	3.3954	3.1909	6.3912	1.1336	3.6617	2.4389	4.3302	0.2549	2.1735	3.4889	5.0029	3.1132	2.0690	3.6589	4.5113	4.8439	1.5755	2.7775	4.4073	4.7241	4.2377	1.9376	0.9769	3.4278	5.1776	4.9534	1.7264	3.5631	4.1401
1507.8125	8.7254	-4.1329	3.5942	3.1821	3.7898	5.8870	1.4791	3.1914	2.3893	4.0596	-0.3837	1.1756	1.8012	2.6370	2.8389	1.0370	1.3808	1.8014	3.4710	1.4394	0.8383	1.7007	2.2151	2.4237	1.4297	-0.5681	1.2080	3.1121	2.8624	-0.1148	1.3913	1.9161
1515.6250	10.5305	-1.8499	4.8074	4.0203	3.9530	6.9606	2.1480	3.2918	1.0476	4.8407	0.6639	0.4664	2.1244	2.0908	3.8084	0.8610	0.3277	0.5049	3.6935	0.6937	-0.2324	-0.4195	0.9230	1.4230	0.1438	-2.3711	-1.2222	1.5182	1.7087	-1.5415	-0.0470	0.6035
1523.4375	10.4262	-1.9946	3.9552	3.3927	5.0444	6.9589	1.9731	1.8340	1.9657	4.7694	0.1837	-0.5867	0.9166	0.4140	3.0816	-0.1519	-1.4167	-1.6861	2.4333	0.0748	-1.7581	-3.5593	-0.9704	-0.1258	-0.6211	-3.5538	-3.9146	-0.6992	0.1297	-2.8134	-1.9231	-1.2544
1531.2500	13.9652	0.0144	7.5557	6.2830	6.6843	8.8894	5.4839	4.3966	2.9626	5.7113	3.8065	2.3507	2.8701	3.0727	4.9871	2.8892	1.1834	0.1534	4.3425	2.9640	0.9909	-1.8979	0.6560	1.4466	2.1464	-1.0014	-2.6183	0.9027	1.2956	0.0483	0.7366	0.3630
1539.0625	12.1495	-2.3437	5.0644	3.7190	5.9377	7.7609	3.4807	1.4201	2.3016	4.0823	1.9430	0.7156	0.0645	-0.0478	2.4480	1.1669	-1.1651	-2.4805	1.1241	0.8535	-0.3789	-3.7520	-1.8966	-1.2905	0.9096	-1.5562	-3.8321	-1.5797	-1.3688	-1.1302	-0.7394	-1.2250
1546.8750	13.2481	1.3485	5.5482	3.8647	5.5169	7.5857	4.0628	1.3416	0.8620	3.8664	2.7071	0.4590	-0.1160	-0.1232	2.5109	1.6270	-0.7195	-2.2242	0.8040	0.7770	0.0675	-3.1757	-2.1009	-1.6713	0.8830	-1.1487	-3.0203	-1.5126	-1.2267	-0.5343	0.3607	-0.6644
1554.6875	12.8464	-0.5495	5.9445	4.2585	5.8356	10.1724	5.1610	2.9574	2.2638	2.9067	3.7279	2.9604	-0.0560	2.0494	1.1173	3.0324	1.2777	-0.5185	0.7955	1.3539	1.5436	-1.0264	-0.6905	-1.7797	1.4073	0.5839	-1.2697	-0.4106	-0.7129	0.0792	0.8958	0.2293
1562.5000	13.0929	-0.1888	7.2426	5.7089	6.0362	7.3174	6.8528	5.6844	3.4825	4.3233	5.7467	6.7190	3.1064	5.6738	2.2796	6.4356	5.9615	3.6971	3.5230	4.3351	5.1249	3.3527	2.4697	0.1777	4.1923	3.2996	2.5918	2.5245	1.9245	3.0898	3.9486	2.9897
1570.3125	12.2475	0.3330	5.7704	4.9117	6.5866	9.4091	5.2460	4.9972	4.6134	5.5304	4.0521	6.2048	4.9823	6.0093	2.7401	4.9307	5.6342	4.8497	4.6241	3.1313	4.6341	4.0790	2.9631	0.7394	3.2972	2.5919	2.8411	2.3601	1.9630	2.1131	2.9885	2.4248
1578.1250	11.0409	-0.6459	5.5779	5.5426	8.4350	5.8335	5.2384	6.0844	6.5410	8.2550	4.6080	6.8553	8.7013	8.1711	5.2854	5.5893	6.9975	7.7697	7.6731	3.9139	5.4821	6.6799	5.8995	3.8651	4.3660	3.8674	4.9767	4.5917	3.9419	3.6760	4.6986	4.0995
1585.9375	6.8942	-4.1092	2.5444	3.3094	6.0286	5.0314	2.1372	3.7319	4.0452	5.5121	1.7292	4.0429	6.3733	5.2063	3.9588	2.4094	4.1624	5.3186	6.0110	1.1726	2.7092	4.4720	4.3357	2.9334	0.9060	0.3482	3.2230	2.9853	2.7897	0.2541	2.3678	2.5195
1593.7500	7.9417	-2.0396	2.1564	2.7670	4.5372	4.5262	1.3492	2.6462	2.8261	4.1841	0.8124	1.2355	3.8686	3.1743	3.2573	0.8749	2.0663	3.7107	4.9432	0.1345	1.1421	3.3341	3.3439	2.5774	-0.2965	-0.8869	2.4084	2.7899	2.3603	-0.8417	1.4951	2.0121
1601.5625	9.1737	-0.6758	2.6385	2.7637	3.6457	8.3624	1.5759	2.9771	2.0834	3.5807	1.2094	0.7875	2.8461	2.6995	3.2893	0.9866	1.4270	2.9587	4.6410	1.3462	1.4684	2.6422	3.2077	3.0387	1.4356	-0.1423	2.0453	2.5746	2.5319	0.4411	1.7266	1.9689
1609.3750	7.4483	-2.0395	2.2803	2.7327	3.6049	4.4267	1.3865	2.8712	2.4214	3.0163	1.1402	0.7298	0.6789	1.8039	2.4810	1.2890	0.3916	0.5386	3.0284	2.5142	0.8648	0.1846	1.3719	2.2120	2.6254	0.0142	0.6008	1.1128	1.8441	0.7862	1.4778	1.2154
1617.1875	7.6275	-2.0379	2.9788	3.1111	3.1432	6.6653	2.0993	3.1013	1.1261	2.2646	1.9898	1.2071	-0.4820	1.0091	1.9974	1.8390	-0.2969	-1.4816	1.7956	2.7033	0.7276	-2.1578	-0.9587	1.3828	2.3403	-0.6440	-1.3060	-0.3582	0.7891	0.1682	1.0694	0.4050
1625.0000	6.8746	-3.9396	3.1594	3.5612	4.7270	4.8085	2.3625	2.9816	2.3800	2.5954	1.7394	1.5624	-1.0524	0.2354	0.9135	2.0857	-0.8803	-2.6225	0.7059	3.3989	0.7670	-3.0401	-2.1237	0.6296	3.1472	0.0822	-1.7879	-0.9324	0.1504	0.6767	0.5880	-0.1231
1632.8125	9.0419	-1.4630	4.1180	5.5628	5.5649	6.8347	2.6988	3.9666	3.1943	3.9921	1.4556	1.5018	0.8433	1.6514	2.8942	2.3108	0.0806	-1.1938	2.3429	3.1983	1.4780	-2.0609	-0.8039	1.2979	3.2628	0.6763	-1.0474	0.5153	1.2424	1.3551	1.5324	0.9878
1640.6250	8.4340	-1.8386	2.6506	4.6424	5.9528	6.3478	1.3858	3.0780	3.8848	3.8976	0.2257	0.7256	0.3452	1.2611	1.6576	0.1489	-0.7301	-1.7825	1.5034	-0.2068	-0.5235	-3.0489	-1.2843	0.0647	0.3917	-1.1627	-2.2187	0.0810	0.6375	-0.9296	-0.1089	0.1175
1648.4375	11.3908	1.1137	6.3574	7.0698	6.9281	9.3917	4.5607	6.1060	4.3911	5.0934	2.0690	3.4485	2.1269	4.1792	2.6690	1.6231	1.6467	0.3604	3.1637	-0.0640	0.8741	-0.6943	0.7283	0.8495	-0.0065	-0.9174	-0.6307	2.1753	1.6922	-0.1024	1.0964	1.7001
1656.2500	12.4905	1.0273	8.0330	8.8141	8.9225	10.4725	6.0874	7.4199	7.0874	5.8754	2.4962	4.9422	2.1123	4.7144	2.5550	1.8786	1.6676	0.6018	2.3020	-0.0113	0.8081	-0.4090	0.4787	-0.4341	-0.1852	-1.2276	-0.3943	1.6410	0.6204	-1.1721	0.1366	0.9079
1664.0625	14.2417	1.1951	10.8488	12.2259	11.2284	9.6025	8.5782	10.6957	9.7873	8.1974	4.2263	7.3223	6.2920	8.7751	4.4561	3.5933	4.8734	4.6764	5.0775	1.1518	1.9933	2.7615	3.1380	0.9626	-0.1108	-0.7994	1.6238	3.4656	1.8778	-0.5432	1.4090	1.9965
1671.8750	11.7216	-1.5084	8.8347	10.0543	10.6307	9.0411	6.2886	8.8762	9.9862	7.3882	1.2783	5.5192	5.7761	7.2384	3.1079	0.1978	2.6691	3.5099	3.8808	-2.9023	-1.2535	1.2421	1.8255	-0.7499	-3.3224	-3.7148	-0.0323	1.0186	-0.5035	-3.1459	-0.7554	-0.2911
1679.6875	10.4758	0.1351	7.6814	8.7128	9.0700	5.8550	5.1041	7.7733	7.9258	7.5806	1.3708	4.1905	6.3127	6.6508	4.5093	0.3046	2.3774	4.2415	4.9796	-2.5888	-0.9643	1.7934	2.3918	-0.1159	-2.3197	-3.3364	0.7213	1.4593	0.3540	-1.5064	0.6863	0.8432
1687.5000	8.7953	-1.4041	4.7316	6.7822	8.2406	6.8857	2.6695	5.9287	7.5552	6.6826	-0.1565	2.9264	5.0777	5.8596	3.1658	-0.6926	1.8391	4.0139	3.8659	-2.8104	-1.0413	2.1488	1.9972	-0.4705	-2.7861	-3.0286	1.2856	1.3270	0.0148	-2.1038	0.4243	0.8500
1695.3125	11.2503	1.9401	5.7631	7.5085	8.0760	6.5952	3.4636	6.2975	7.3402	6.8536	1.4537	3.5731	4.9406	6.4099	4.0138	1.1171	3.5142	5.2386	4.6808	-0.7630	1.2134	4.1950	3.8419	1.5121	-0.7041	-0.2260	3.5187	3.7223	2.4428	0.3307	2.9448	3.1669
1703.1250	9.5550	-0.1958	4.0844	4.9432	6.1017	8.9523	2.0713	3.6943	4.9474	4.8207	0.1002	1.8251	3.1450	3.7051	2.9546	0.6216	1.9574	3.3010	3.9163	-0.2159	1.3415	3.1428	3.0130	2.0129	0.3752	0.7758	2.9279	3.6381	3.0440	0.7352	2.7163	3.0582
1710.9375	8.3370	-1.5534	4.0488	3.7107	5.0845	6.5784	2.7188	3.0941	3.2718	3.9620	1.1477	1.5577	1.8563	2.7590	3.1063	1.9550	2.2135	2.4453	3.6620	1.6356	2.6955	3.1293	2.4884	2.6761	2.5757	2.3321	3.0339	3.7598	3.7751	2.1700	3.4644	3.4064
1718.7500	6.4713	-2.4227	1.4321	0.3703	1.4562	8.5410	0.4145	0.2462	-0.5886	0.7440	-0.6538	-0.4736	-1.5469	-0.2537	1.2962	-0.0103	0.2546	-0.9732	1.1503	0.2433	1.1925	0.6095	-0.4726	0.8873	1.0121	0.7812	0.6726	0.8601	1.6336	0.4198	1.2323	1.2328
1726.5625	5.4223	-2.7666	-0.1529	-1.0137	0.4599	5.0903	-0.0867	-0.4241	-1.0810	0.3009	-0.5115	0.0998	-2.6603	-0.6234	0.3956	0.6244	0.6692	-2.3685	0.4974	0.9071	1.8743	0.2573	-1.4859	-0.0261	1.9127	1.8070	0.2245	0.2594	0.9377	1.2238	1.5412	0.9436
1734.3750	8.0923	-0.6038	2.2942	0.2495	1.5023	10.0891	3.4006	1.1048	-0.6506	1.2128	2.9734	3.0312	-1.4736	0.9193	1.6082	3.3744	2.4494	-0.8947	1.1642	3.2272	4.0474	1.5835	-0.5671	0.5109	4.3989	4.1172	1.6282	1.1803	1.7251	3.4071	3.3848	2.1237
1742.1875	10.4255	0.6467	4.0337	2.1589	4.1569	9.8063	4.5539	1.9012	2.2405	2.4025	3.0757	2.8972	-1.0404	0.9697	1.3066	2.4571	1.5758	-0.8273	0.6644	2.2302	2.2493	0.0557	-0.9443	-0.3742	2.9282	2.5786	0.3364	0.7691	0.9119	1.6803	2.0308	0.9617
1750.0000	13.1320	2.6573	7.0926	5.8634	6.4678	11.9244	5.6439	4.8945	4.2049	4.0766	2.7170	3.3862	1.7078	3.3740	2.2254	2.1312	1.8949	0.9157	2.3373	1.4705	1.6406	0.1134	0.5483	-0.1895	1.8064	1.3813	0.0519	2.6170	1.7468	0.9874	1.6890	1.5820
1757.8125	11.6761	0.5727	5.9165	5.4177	7.8148	9.2537	3.6590	4.2558	5.8381	4.7637	0.3306	2.1175	2.8904	3.3225	2.3111	-0.3434	0.6671	1.9652	2.8521	-0.7096	0.1174	0.0061	1.5986	0.5505	0.0846	-0.1152	-0.1381	3.6927	2.5047	-0.4691	0.7805	1.8415
1765.6250	11.5867	1.5157	5.0562	4.4501	5.8792	10.0179	3.2509	3.6156	4.1521	4.7907	-0.1163	1.9476	4.4062	4.2052	3.6108	0.1186	1.5977	3.5919	4.3621	-0.6755	0.9871	1.3583	3.4639	2.0427	0.1776	-0.1210	1.0272	5.4398	4.0070	0.1936	2.3349	3.4015
1773.4375	10.6814	-0.1363	4.5143	3.5161	5.4076	11.0422	3.6259	2.7937	4.2626	3.8139	0.3924	2.3187	2.9353	3.3788	1.6612	0.0595	1.3001	2.5455	2.6828	-0.9468	0.3074	0.9258	1.9755	0.2312	-0.4717	-0.7816	0.8783	3.9431	2.2731	-0.4569	1.5630	2.6980
1781.2500	13.7236	3.0201	8.2884	7.1505	7.5317	12.2078	6.5933	6.6078	6.1363	5.8214	2.7790	5.1586	5.3780	7.0581	3.0190	2.1471	4.1908	5.0170	4.4410	0.6999	2.7107	3.5018	3.6732	1.5348	0.9424	0.6508	3.1706	5.1951	3.3776	1.4751	3.7135	4.4088
1789.0625	12.6167	0.9298	7.4910	7.1523	8.4448	11.5587	5.5948	6.4140	7.7804	5.1963	1.3648	4.6636	3.6245	6.1866	0.9705	1.0441	2.7205	2.9919	2.0368	-1.3388	1.2484	1.8337	1.3357	-1.0037	-0.3371	-0.4196	1.7895	2.0883	0.3091	0.0445	2.1824	2.2783
1796.8750	13.7258	2.7847	8.7519	8.2911	8.1674	11.6690	6.9690	7.6700	6.9251	5.2518	3.7058	5.2444	3.4933	6.6161	1.6434	3.1601	2.8213	2.8847	2.4254	1.2718	1.9960	1.4670	0.6961	-0.6855	1.1314	0.0830	1.6131	0.9700	-0.2313	1.2757	2.8282	1.6945
1804.6875	11.6286	1.3534	6.8731	6.2147	6.4234	11.9718	5.4413	5.3633	5.0129	2.9703	2.2676	3.6742	0.4857	3.2206	0.1292	1.9217	0.3208	-0.2217	0.5596	1.3745	0.3986	-0.8599	-1.2862	-1.3369	0.6328	-1.0589	-0.3449	-0.8681	-0.9666	-0.2794	0.7238	-0.0310
1812.5000	12.4585	2.6189	7.9387	6.5835	5.9561	9.9665	6.0943	5.3365	3.4212	3.1523	3.5666	3.2874	0.7935	3.4166	1.6357	2.4792	1.3163	0.2748	1.5657	0.8452	1.0477	0.0679	-0.5482	0.7460	-0.0990	-1.0457	-0.1420	-0.3726	0.1204	-0.3593	1.0975	0.2366
1820.3125	11.5981	2.5436	5.7434	4.6257	4.0701	13.3734	4.0310	3.2359	1.8843	1.5013	0.9161	1.6693	-1.3739	2.5319	0.3860	0.4070	-0.0208	-1.3719	0.0181	-1.3712	-0.6023	-1.0273	-2.3387	-0.2152	-2.0091	-2.7195	-2.0186	-2.0337	-1.3676	-2.0926	-1.1023	-1.7433
1828.1250	10.8346	1.2562	4.6645	4.7531	4.0302	8.1873	2.2689	3.6718	2.2034	1.9760	-0.9248	1.2761	-1.6350	2.9994	1.2319	-0.0532	0.5917	-1.5980	0.0095	-1.4428	-0.6366	-1.0075	-2.3249	-0.6514	-2.4723	-3.7081	-2.8896	-2.2581	-1.5070	-2.7617	-1.8940	-2.1348
1835.9375	10.5809	1.1356	4.3883	4.0458	4.5384	9.8040	1.3474	2.9402	1.9376	1.9810	-2.1980	0.8418	-2.0843	1.3940	1.0817	-1.5026	-0.6794	-2.8558	-0.6736	-3.4080	-2.1189	-3.1598	-3.7871	-1.6589	-5.1691	-6.2480	-4.8694	-4.1802	-2.9832	-5.4603	-4.0630	-3.8639
1843.7500	10.9609	2.2324	4.0795	3.0937	4.7857	9.4988	2.3098	1.6689	1.9715	1.9276	-0.9903	0.8215	-1.7645	0.6607	1.3393	-0.7090	-0.7821	-2.8017	0.0266	-2.6970	-2.1124	-3.2779	-3.3614	-1.2903	-4.8245	-6.4199	-4.6348	-3.5143	-2.1929	-4.7073	-2.9530	-3.1295
1851.5625	11.0461	1.7866	3.8715	3.1404	4.4983	12.9713	3.2650	1.8253	2.1801	2.6260	0.8252	1.8015	0.5737	1.8489	2.2158	0.9368	0.6486	-0.2963	1.8419	-1.0749	-0.1400	-1.0419	-0.5512	0.4179	-2.8746	-4.0754	-2.0601	-0.0656	0.3278	-2.5779	-0.7832	-0.3206
1859.3750	10.8924	1.4891	4.5180	3.7553	5.2970	10.4228	3.3200	2.5916	3.7160	3.6592	1.8045	2.6755	2.4322	3.0474	2.1280	1.9881	1.9872	1.7822	2.8996	-0.2861	1.2959	1.5204	1.6369	1.2700	-1.7035	-1.8145	0.3812	2.7081	2.0187	-1.3989	0.7240	1.8624
1867.1875	10.8183	1.6838	4.5182	3.3931	4.0645	12.4240	3.2381	3.0611	2.8440	3.3628	1.7796	3.4227	3.4854	3.9679	2.8733	3.6278	4.0297	3.3564	4.1293	1.5523	4.2292	4.1712	3.5884	2.2573	1.3714	1.5391	3.1316	5.1493	3.2785	1.8372	3.3988	3.9453
1875.0000	9.1453	-1.0807	3.5267	2.5677	4.2628	9.5508	3.4458	2.6658	3.6032	3.1985	2.4481	4.4844	3.4603	4.3908	2.3129	4.7251	5.5134	4.5160	4.0815	2.3292	5.6157	5.8756	4.3804	2.5261	3.0923	3.9155	5.4530	6.5941	4.1170	3.4432	4.8538	5.2131
1882.8125	8.6802	-0.7135	3.9366	2.6821	3.8471	8.7293	3.9636	3.0023	2.0985	2.6576	2.5610	4.9694	3.6888	4.8759	2.2532	4.6615	5.8618	4.8260	4.4035	2.3142	5.4388	6.2304	4.9325	3.2638	2.8163	2.9821	5.9504	6.5818	4.7329	3.0879	5.1359	5.9016
1890.6250	8.6853	-0.6524	2.8435	2.0793	4.4271	8.4893	2.7345	2.0983	3.0682	2.2233	1.0083	3.5009	2.1888	3.3555	0.5983	2.2764	3.5848	3.2213	3.1770	0.2029	2.9940	3.9792	3.4761	1.9535	1.4025	1.2824	3.9173	4.7908	3.1152	1.5158	3.0723	3.9867
1898.4375	11.0350	2.7389	4.7873	3.8480	3.8375	10.5888	4.1871	3.7963	3.4846	3.5553	2.7014	3.5122	4.0647	4.2325	3.1094	2.5106	3.3878	4.1356	4.8946	1.4186	2.7733	3.0423	3.9954	3.5193	2.0688	1.3440	3.1483	4.8519	3.7345	2.1833	3.4621	3.9599
1906.2500	8.1785	-0.1597	2.6055	2.4647	2.7670	8.5046	1.9278	2.0560	3.0600	2.3578	-0.3580	0.5609	1.1281	1.4208	0.9614	-0.8816	-0.6558	0.2271	1.7645	-0.9900	-1.3984	-1.9370	0.4227	0.7882	-0.3077	-1.9859	-1.4976	0.4875	0.3246	-1.4659	-0.7186	-0.0849
1914.0625	12.0335	3.5266	6.5938	7.2540	7.3760	9.8259	5.2809	6.3320	5.7988	5.9018	2.1387	2.9115	3.9431	5.1822	3.6748	0.8538	1.4985	2.3329	4.1202	0.1296	-0.1414	-1.0462	1.3630	1.8970	0.1678	-1.8212	-1.5112	0.6763	0.3420	-0.9047	-0.1461	-0.6037
1921.8750	11.1807	3.4734	5.1279	6.2193	9.1715	11.0215	3.5561	4.6225	7.0552	6.8602	0.5730	1.6729	4.0936	3.8013	3.6270	-1.1097	-0.5038	1.0183	3.3274	-1.7707	-2.6041	-3.3038	-0.5284	0.2185	-2.7632	-4.6355	-4.1141	-2.0704	-2.0033	-3.9205	-2.9853	-2.9135
1929.6875	13.5789	5.6693	6.6535	7.8005	10.3900	10.4168	4.1193	5.7425	7.3756	8.8002	1.3630	1.8090	6.3824	5.3480	4.9802	-0.2533	0.6736	2.9469	4.7844	-1.6972	-2.0426	-2.1005	0.4959	0.6795	-2.9010	-5.2685	-4.4760	-1.5755	-1.7534	-4.0603	-2.7018	-2.4280
1937.5000	13.9264	3.4226	7.4012	8.5620	11.5618	13.0441	5.3127	6.3301	8.3347	9.0122	1.8007	2.3040	6.2537	4.9860	4.6762	-0.0959	0.3135	2.0587	4.2099	-2.1336	-2.3001	-2.7464	0.0616	0.7537	-3.3509	-5.7099	-4.9841	-1.7159	-1.4763	-4.4045	-3.3419	-2.7466
1945.3125	13.5148	4.0435	6.6805	7.7130	9.8647	10.5432	5.1292	5.0964	6.7058	8.2433	2.6991	1.0617	4.3363	3.0970	4.5785	0.4408	-1.2222	0.0760	3.6251	-1.0589	-2.5021	-4.4065	-0.6957	0.8404	-3.2715	-5.8807	-5.2765	-1.3885	-0.5730	-3.8479	-2.6259	-2.3667
1953.1250	13.0011	4.3387	4.9884	5.6306	7.4248	13.5100	3.8808	2.8911	4.7977	5.2776	2.4095	0.0109	1.2974	0.7337	2.8675	0.1342	-2.4433	-1.9066	1.3717	-1.9197	-2.5595	-5.0870	-2.1507	-0.4443	-4.0765	-5.9402	-5.1729	-1.4954	-1.1747	-4.9424	-3.0967	-2.3189
1960.9375	12.4043	3.6302	4.7727	5.3558	6.7873	10.9272	4.5376	3.1418	4.6640	4.8351	4.0212	2.0589	1.3885	1.5462	2.8544	2.7031	0.2244	-0.6425	1.7431	-0.0484	0.1236	-2.6016	-0.6349	0.4617	-1.7279	-2.6419	-2.0494	1.5977	1.0334	-1.8084	0.0928	1.0184
1968.7500	10.2836	2.7696	2.9864	3.1769	4.3024	11.2428	3.2803	1.9480	1.9409	2.7172	2.2898	2.6014	-0.0676	0.2948	1.9844	2.9579	0.6761	-1.3252	0.8038	-0.1135	1.0121	-1.9308	-0.8094	-0.2288	-0.8300	-1.1639	-0.8287	1.3671	1.2179	-0.5293	0.9695	1.6834
1976.5625	9.4308	1.6527	3.1839	2.6968	3.8025	8.3586	3.6343	2.6028	1.9974	2.5804	3.8802	4.0435	0.1804	1.2276	1.7227	4.4704	2.8696	0.1063	1.1155	1.7332	3.6488	0.9842	0.1741	0.2271	1.5212	1.6910	2.6144	2.4809	1.9229	1.5004	2.7368	3.1015
1984.3750	8.6014	1.3577	1.9016	1.2832	1.4580	10.2162	2.9427	1.9702	-0.0978	1.6270	4.0052	3.9835	0.5174	1.7902	0.7902	4.8810	3.6360	1.2268	1.4535	3.2066	4.7865	2.5447	0.6385	0.4046	2.9729	3.0739	4.2437	2.5962	1.6875	3.3865	4.6206	3.6648
1992.1875	6.5739	-0.8498	-0.2710	-0.0772	0.5185	6.4615	0.7936	0.1301	-0.2837	0.3915	1.4773	1.8675	-0.7620	0.2783	-0.3806	2.9188	2.3101	0.4615	0.6758	1.9657	3.5757	2.0903	0.0682	0.2501	2.7166	2.8441	3.8340	1.4391	1.1029	2.9382	3.9697	2.6976
