Time FPz	EOG1	F3	Fz	F4	EOG2	FC5	FC1	FC2	FC6	T7	C3	C4	Cz	T8	CP5	CP1	CP2	CP6	P7	P3	Pz	P4	P8	PO7	PO3	POz	PO4	PO8	O1	Oz	O2	
-1000.0000	-0.4012	0.9720	-0.5206	-1.7897	-1.4413	1.7705	0.2966	-1.1116	-0.5538	-0.6010	-0.0534	-0.6665	-0.7101	-1.4287	1.8641	-0.7438	-1.5730	0.3554	0.4363	-1.1447	-2.4556	-0.6265	-0.4280	-0.4472	-2.3172	-2.3777	-1.2756	-1.7016	-2.3032	-2.7472	-2.7807	-2.5410
-992.1875	1.0151	3.6540	0.6195	-0.3422	-0.7291	0.8134	0.8561	-0.1375	-0.9252	-0.0354	0.9903	-0.8304	-0.8051	-0.6721	2.7158	-1.2416	-1.9249	0.0314	0.5279	-2.5341	-3.2767	-0.6411	-0.4960	-0.3646	-4.0409	-4.3428	-1.8541	-1.6532	-2.2440	-3.2422	-2.7006	-2.4988
-984.3750	-1.2756	1.6608	-2.4084	-2.1586	-1.6691	1.7462	-1.4025	-2.3952	-1.8438	-0.9170	-0.9870	-2.5328	-2.1309	-2.3740	1.7276	-3.1722	-3.4447	-1.7150	-0.9014	-3.6140	-4.4641	-2.2381	-1.9926	-1.6503	-4.4144	-4.9797	-2.6161	-2.9303	-3.9039	-3.8341	-3.5836	-3.4899
-976.5625	-3.0259	1.4883	-2.8564	-2.7210	-2.2328	-1.5629	-1.5870	-2.1274	-2.0561	-0.3993	-0.6039	-1.7198	-1.3473	-1.4301	1.3821	-2.0167	-1.8480	-1.0438	-0.3595	-2.1576	-2.7263	-1.0100	-1.2155	-1.1356	-3.2211	-2.9439	-1.3282	-1.7299	-2.8015	-2.6571	-1.9772	-2.0560
-968.7500	-4.9193	0.3099	-3.7053	-3.3646	-2.4433	0.0149	-2.6460	-2.3869	-2.2341	-0.9554	-1.7234	-1.8139	-1.9068	-1.9422	0.9331	-2.8495	-1.9543	-1.6412	-0.7278	-3.6608	-2.7419	-1.1729	-1.7737	-1.0684	-4.4687	-2.5056	-1.1880	-1.2491	-1.6257	-2.9608	-1.8777	-1.1433
-960.9375	-3.4706	1.7646	-0.9136	-1.1423	-1.1893	-0.7893	-0.4469	-0.1159	-0.5245	-0.1175	-0.0350	0.1276	-0.2129	-0.3643	1.7654	-0.5643	0.5064	0.1427	0.8453	-2.1470	0.0131	0.5311	0.2441	1.5455	-1.9818	0.4817	0.7537	1.0966	1.3225	-0.2868	0.6956	1.6868
-953.1250	-6.6200	-2.1219	-2.8481	-3.4849	-3.5005	-0.8398	-1.7110	-1.9322	-2.3993	-3.3447	-0.3882	-0.4925	-2.9919	-2.2365	-0.4223	-0.5167	-0.5101	-2.1866	-1.6770	-1.4820	-0.0906	-0.5948	-1.5206	-0.4459	-1.0303	1.0944	-0.2367	-0.3102	0.1228	-0.1356	-0.3300	0.1529
-945.3125	-6.5976	-1.3333	-3.4336	-4.9771	-5.3427	-0.6362	-0.8634	-2.9415	-4.5627	-4.7023	1.4578	-0.1924	-5.1262	-3.9906	-1.6199	1.2399	-0.7025	-4.0813	-3.3607	1.2129	0.6309	-1.4600	-3.4781	-1.5744	1.0258	1.7064	-0.9648	-1.6733	-1.2852	0.4869	-0.9748	-1.2291
-937.5000	-4.1398	0.1546	-1.1527	-3.7934	-5.5940	2.8678	1.5142	-1.1622	-4.7662	-4.3717	3.2759	1.5143	-4.7092	-3.2250	-1.6307	2.6265	-0.0105	-3.9963	-3.0111	2.8655	2.0411	-1.3456	-3.0185	-0.2429	2.4866	2.4843	-0.4854	-1.0192	-0.2831	1.2119	-0.4342	0.0163
-929.6875	-3.2475	0.4778	-0.8545	-3.2218	-5.3541	1.7044	0.6134	-1.5211	-3.8037	-4.2187	1.8819	-0.6498	-4.8848	-3.3696	-1.5059	1.1691	-1.4198	-4.5705	-4.0500	1.8568	0.1523	-2.1951	-3.8548	-1.8822	1.9360	1.3725	-1.1215	-2.0423	-1.6100	0.9709	-0.6796	-1.1250
-921.8750	-3.1723	0.7004	-2.0968	-3.3491	-5.6064	0.9562	-0.7270	-2.2695	-3.8234	-4.6902	1.3228	-2.3871	-4.8329	-3.3400	-2.1241	-0.1679	-2.6365	-4.3018	-4.4013	1.5246	-1.0668	-2.7169	-4.3088	-2.6801	1.4993	0.4013	-1.3820	-3.2188	-2.5963	0.5857	-0.5456	-1.5257
-914.0625	-4.3046	0.1210	-2.9940	-4.1410	-5.2928	1.0135	-1.2434	-2.8098	-3.3694	-4.3457	0.7734	-2.1423	-4.3585	-3.3409	-2.3314	-0.1011	-2.7767	-3.3458	-4.3798	1.3901	-0.9047	-2.5906	-3.6176	-2.7551	1.0800	0.0134	-0.6903	-2.4413	-2.3671	0.2673	-0.1398	-1.0703
-906.2500	-4.1782	0.3029	-3.2627	-4.9463	-5.4577	0.6355	-1.5736	-3.8333	-4.9574	-4.1731	-0.6416	-2.9297	-3.3592	-3.9647	-1.6506	-1.1366	-3.6531	-2.6643	-3.5810	0.2383	-2.0168	-2.6437	-2.5396	-2.4245	-0.3367	-1.7164	-0.6126	-1.6414	-2.0047	-0.2281	0.0452	-0.9433
-898.4375	-4.3089	-0.6490	-4.2460	-5.4280	-4.6333	0.0499	-3.0481	-4.8646	-4.3112	-3.6242	-2.4693	-4.2049	-3.2241	-4.9557	-2.5736	-3.5776	-5.2202	-2.3149	-2.7789	-2.2256	-4.6609	-3.8024	-2.0193	-1.7601	-2.3997	-4.2487	-1.6722	-1.1501	-1.0732	-1.6964	-0.7262	-0.2146
-890.6250	-2.1286	1.5349	-2.5144	-3.0047	-2.5374	-0.7965	-2.2182	-3.1592	-2.8399	-1.9462	-3.3727	-4.0796	-1.7097	-2.6765	-0.2852	-4.0656	-4.4582	-0.6156	-1.1601	-3.4071	-5.0130	-2.9226	-0.3057	-0.0291	-3.4930	-5.1690	-1.3818	0.6156	0.6434	-1.8725	-0.2462	0.3863
-882.8125	-3.6637	-0.5094	-4.3571	-4.3786	-2.7773	0.2771	-4.3144	-4.7614	-3.1976	-3.2004	-6.0951	-5.5982	-4.1786	-4.4679	-1.9605	-7.2615	-6.5898	-3.6065	-3.7494	-6.8562	-7.5961	-5.4131	-2.7744	-2.0482	-6.6557	-7.3429	-3.8096	-1.8944	-1.6539	-4.5585	-3.0991	-2.3314
-875.0000	-1.1638	3.3916	-2.5465	-3.4237	-1.9363	0.1030	-2.6107	-3.4363	-2.9283	-1.4270	-4.6667	-4.1055	-2.5474	-3.1976	-1.4050	-5.7871	-4.6812	-2.7683	-2.0854	-5.4276	-5.9668	-4.2150	-2.0562	-0.9021	-5.3368	-5.8523	-3.2124	-1.4386	-0.8311	-3.0050	-1.7672	-1.0076
-867.1875	-2.4252	2.1099	-3.4785	-4.8192	-3.3673	1.7056	-2.9987	-4.6242	-3.7849	-2.5537	-4.9190	-4.0110	-4.2647	-4.8333	-3.0356	-5.8335	-5.4281	-4.7081	-4.2387	-6.2325	-6.1327	-5.5920	-4.3117	-2.6119	-5.7383	-5.9599	-4.8354	-3.8396	-2.7387	-4.3037	-3.6551	-3.0410
-859.3750	-2.5491	1.7292	-3.1712	-4.6607	-4.5365	-0.5894	-2.5765	-4.2794	-4.9561	-3.8652	-3.5265	-3.7624	-5.8096	-4.9136	-3.0969	-4.8115	-4.8660	-5.7468	-5.4875	-5.9468	-5.9077	-6.5039	-6.0914	-3.7579	-5.8342	-6.3120	-6.1026	-5.5523	-4.1166	-4.6171	-4.3497	-4.6124
-851.5625	-3.3676	1.8617	-4.2121	-5.4740	-4.7899	1.8384	-3.2200	-4.5421	-4.3971	-4.9762	-3.6295	-3.9251	-6.5363	-5.0525	-3.7634	-4.8513	-5.0816	-7.3415	-6.3265	-5.3833	-5.5198	-7.2225	-7.4354	-3.9828	-5.2033	-5.9570	-6.6940	-6.6633	-4.6946	-4.3932	-4.3897	-4.6137
-843.7500	-2.2038	3.5391	-3.3053	-4.7501	-4.4610	0.4748	-2.4809	-3.5839	-4.2251	-4.6323	-1.7810	-3.0896	-6.1734	-4.0163	-2.9288	-3.2763	-3.6076	-6.8883	-5.9806	-3.4588	-3.6695	-6.3485	-7.0223	-3.2149	-2.8639	-4.0398	-6.1559	-6.2090	-4.0205	-2.5914	-3.4187	-3.9711
-835.9375	-2.6838	1.6779	-3.2962	-4.8790	-4.9468	2.3298	-1.7361	-3.1993	-3.5982	-4.7898	-1.1669	-1.8754	-6.1824	-3.1440	-3.7158	-2.2709	-2.8257	-6.5197	-6.1100	-2.2187	-2.2610	-5.9528	-7.4574	-4.4145	-1.2360	-2.1954	-6.0787	-7.1780	-4.9771	-2.2075	-4.1181	-5.3113
-828.1250	-3.3034	2.2493	-2.1716	-3.3727	-3.5753	0.7105	-0.1185	-1.0546	-1.7925	-2.6786	0.8824	0.0181	-3.3792	-0.6068	-2.2801	0.5535	0.1093	-3.7136	-3.3919	1.2310	0.7145	-2.6425	-4.6121	-2.6470	1.5012	1.5557	-3.0138	-4.4141	-2.9136	0.1367	-1.6377	-2.6913
-820.3125	-2.6209	1.3896	-1.7786	-2.6707	-2.6229	1.5605	-0.2331	-0.6520	-1.0401	-2.3047	0.7241	0.3638	-1.8728	0.3959	-0.2462	0.9849	0.5584	-1.8787	-1.9935	2.0188	1.7764	-1.1853	-2.6849	-1.2883	2.6163	2.9084	-0.9909	-1.8510	-1.5009	0.8410	-0.5848	-1.0214
-812.5000	-1.9662	0.9721	-0.3470	-1.1511	-1.5189	1.3961	0.4508	0.0241	0.5186	-1.3071	1.1042	0.2767	-0.7890	1.3411	-0.8029	1.0253	0.6029	-0.1078	-1.1331	1.8606	1.5859	-0.0194	-0.8385	-1.7839	2.3924	2.6515	0.6934	-0.3763	-1.2225	1.1198	0.4189	-0.1556
-804.6875	-1.7466	1.6118	-0.7984	-0.9209	-0.4548	3.0193	-0.1666	-0.5566	0.7636	-0.4332	0.6299	-0.7168	0.5943	1.3495	-0.8181	0.2269	-0.2453	0.8782	-0.2719	1.6933	0.6704	0.4612	0.5322	-1.1018	1.9264	1.7066	1.2879	0.6384	-0.5745	1.3622	0.9097	0.4775
-796.8750	-2.1638	1.1455	-2.6327	-1.8414	0.5750	0.4113	-2.0819	-1.9547	1.5232	0.6301	-0.6068	-1.7294	1.3218	0.7569	-0.2183	-0.4612	-0.3516	2.0393	0.9498	1.3918	0.3221	1.8594	2.1378	0.3573	2.2531	1.6623	2.6316	2.6272	1.5476	1.7913	1.6509	1.7048
-789.0625	-1.0472	1.4333	-2.2793	-1.1987	1.6880	-0.3742	-2.2581	-1.5144	1.5835	1.7604	-1.7676	-1.9795	2.5426	1.1499	1.2462	-1.6315	0.1379	3.5171	2.3376	-0.2670	-0.0696	3.3326	3.8707	1.6960	0.3649	0.6334	3.6197	4.1024	3.0127	1.2371	2.3325	3.1394
-781.2500	-2.6448	-0.0568	-3.3667	-1.9046	1.6444	-0.9869	-3.6186	-2.7970	1.3655	1.2346	-4.1150	-3.5620	1.7843	-0.8511	-0.3977	-3.9850	-2.1281	2.0216	1.1225	-2.7661	-2.8545	1.0172	2.2781	0.4738	-2.3411	-2.2496	0.9458	2.2818	1.2107	-1.4333	-0.5003	0.7371
-773.4375	-1.1939	2.6368	-1.7288	-0.9359	1.2247	-1.1476	-2.3393	-1.9567	1.1197	1.5463	-3.6331	-2.1529	2.9063	-0.3434	0.1270	-3.1460	-1.5202	2.5048	1.7714	-2.6435	-2.3812	1.1593	2.5743	0.8244	-2.1884	-2.0812	1.1077	2.5729	1.1312	-1.0471	-0.2078	0.3737
-765.6250	-1.9072	1.3086	-1.9068	-2.3307	-0.1565	1.0622	-1.6169	-2.3609	0.1173	0.4163	-3.4546	-1.5188	1.2595	-2.0112	-0.2919	-2.7736	-1.9554	1.0754	0.1189	-3.0164	-2.4801	0.2634	1.4872	0.1088	-2.4267	-1.9855	0.7078	1.4370	0.4215	-1.0090	-0.0830	0.4371
-757.8125	-1.7745	2.6192	-1.5345	-2.4218	-1.8447	-0.1155	-1.3868	-2.3893	-2.1033	-1.1592	-2.9342	-1.7293	-0.8211	-3.0688	-1.3267	-2.6703	-2.4238	-1.5993	-1.6543	-2.9226	-2.9169	-1.8015	-1.2033	-1.2432	-3.4155	-3.4538	-0.9856	-1.0638	-0.8578	-1.6661	-0.6640	-0.3169
-750.0000	-1.0732	2.6383	-0.9932	-1.8199	-0.7950	3.0451	-0.9155	-1.6990	-1.0763	-2.0253	-2.7845	-1.6898	-3.3756	-3.6808	-3.4174	-3.3871	-3.1276	-4.8396	-4.4145	-3.9909	-4.2800	-4.4251	-5.0240	-3.7108	-5.0357	-5.3966	-3.4818	-4.3445	-3.6984	-3.6980	-3.1969	-2.8090
-742.1875	2.6010	5.0319	2.6615	0.9267	-0.0232	3.4461	1.9892	1.2005	-0.6389	-1.4005	-0.6391	0.5181	-3.2652	-1.9929	-1.8995	-2.2395	-1.3614	-4.5386	-4.6139	-3.1716	-3.1384	-4.4791	-5.3116	-3.6925	-4.4444	-5.8308	-4.7744	-5.3972	-3.9023	-3.8867	-3.7362	-3.7677
-734.3750	1.2744	2.3292	2.1384	0.2728	-0.4819	4.1497	1.1315	0.9098	-0.4404	-2.0101	-1.6075	0.2806	-3.6272	-2.1682	-2.0785	-3.2747	-2.0584	-5.4998	-4.9705	-4.2138	-4.1439	-6.0814	-6.3780	-4.4258	-5.6715	-7.0960	-7.5463	-7.2555	-5.2368	-6.0834	-6.5912	-6.1659
-726.5625	2.0712	4.4887	3.4210	1.6767	0.9259	2.3229	2.5578	2.7586	1.2071	0.2550	0.3006	2.2122	-0.0427	1.1730	0.0707	-0.3394	1.0979	-2.0149	-1.1959	-1.3555	-1.2362	-2.8410	-3.0842	-1.5624	-2.7989	-3.5884	-5.5860	-5.0167	-3.5589	-3.6150	-4.7224	-4.8377
-718.7500	0.7462	3.4284	0.9214	-0.2789	0.2519	3.6846	0.9303	0.5191	0.3928	-0.5796	-1.1632	1.1205	-0.6442	-0.0374	0.4182	-0.4291	0.2788	-2.0366	-1.1903	-0.7503	-0.6050	-2.7651	-2.8511	-2.1938	-1.5214	-2.1454	-5.5067	-5.5121	-4.2665	-3.4545	-5.2054	-5.2837
-710.9375	0.1911	2.6792	0.2359	-0.6341	0.6858	0.4878	-0.1443	-0.8088	-0.3271	0.5945	-0.9887	-1.0852	0.7320	-0.7310	1.9701	-0.4519	-0.6296	-0.8028	0.4352	-0.4194	-0.3993	-1.6747	-1.2623	-0.3259	-0.1356	-0.7151	-3.5309	-2.8759	-2.3760	-2.1086	-3.7828	-3.6238
-703.1250	-0.8146	1.2744	-0.4679	-1.2012	0.1930	1.6847	-1.0185	-1.7316	-1.0104	0.3622	-0.6604	-2.1454	0.9452	-1.6070	1.8550	-0.4709	-1.4390	0.0361	1.1530	0.0195	-0.0257	-0.2168	0.4309	0.8719	0.6978	0.4957	-0.8415	-0.0857	-0.0346	-0.5371	-1.6777	-1.1782
-695.3125	-2.5982	0.3251	-1.5979	-1.9942	-1.2563	-0.2422	-0.9665	-2.1503	-1.9614	-0.6907	-0.1684	-1.7149	-0.2409	-1.8717	0.9000	0.7857	-0.7749	0.5086	0.6556	1.8359	0.6148	1.3262	1.5692	1.2305	2.1466	1.7926	1.3032	1.4965	1.2422	1.1480	0.4064	0.7772
-687.5000	-3.9693	0.1120	-3.9627	-3.6838	-2.7628	-0.8324	-3.3439	-4.0149	-3.8495	-2.4515	-1.4756	-3.7300	-2.1649	-3.4151	-0.8826	-1.2088	-3.0612	-1.2446	-1.2919	0.2519	-1.6234	-0.2178	-0.2060	-0.1129	-0.1656	-0.7902	0.2326	0.2248	-0.2131	-0.6839	-0.6290	-0.2860
-679.6875	-3.5903	0.4676	-4.9542	-3.8949	-2.3884	-1.3837	-3.7973	-4.4235	-2.4532	-1.3951	-0.9367	-4.0036	-1.1698	-3.1717	-1.0815	-1.2892	-2.8263	-1.0611	-0.9404	0.3274	-2.0677	-0.0606	-0.1462	-0.1709	0.0110	-1.1562	0.7533	0.3220	-0.1948	-0.1977	0.0310	0.2458
-671.8750	-2.1124	1.5807	-4.7218	-4.0284	-1.8271	-0.0680	-3.9705	-4.4900	-2.4325	-0.6133	-1.8574	-4.4735	-0.4513	-2.8417	0.5893	-2.8542	-3.4559	-1.2082	-0.5032	-1.0986	-3.3780	-0.6600	-0.3997	-0.0548	-1.7646	-3.1137	0.1497	-0.6776	-0.6646	-1.1208	-0.6178	-0.6767
-664.0625	-1.7086	2.3844	-5.6406	-4.7312	-1.7918	-0.1332	-5.6487	-5.4428	-3.2398	-0.9308	-4.6231	-6.1142	-2.1300	-4.3353	-0.5113	-5.1921	-5.0752	-3.2120	-1.6260	-3.7838	-5.4454	-3.0933	-2.1710	-0.4279	-4.1857	-5.3438	-2.2355	-2.1117	-1.7047	-3.0446	-2.2464	-2.0097
-656.2500	-2.5172	0.2907	-4.7392	-3.4081	-3.3390	-1.8589	-5.1261	-3.5003	-3.9689	-2.7746	-4.1926	-4.9189	-3.0243	-3.2857	-2.3956	-4.6644	-3.9437	-3.2729	-1.8239	-3.5166	-4.5878	-2.8918	-2.0274	0.0526	-4.1796	-5.0323	-2.3159	-1.5918	-0.5139	-2.9159	-1.8162	-0.9662
-648.4375	-1.8526	-0.7743	-2.4403	-0.7196	-1.5873	-1.1200	-3.2776	-0.7497	-1.1203	-3.0352	-3.6340	-2.7677	-3.5675	-1.2635	-3.5309	-3.9587	-2.8373	-2.8691	-2.6929	-3.7296	-3.9130	-2.3814	-1.9407	-0.9677	-4.2302	-4.5744	-2.5457	-1.9430	-1.1418	-3.5036	-2.3779	-1.8186
-640.6250	2.6203	-0.3853	1.1476	2.0869	0.4582	-1.7170	-0.3435	2.1214	0.4006	-1.1011	-1.2860	-0.4934	-1.1270	1.1794	-0.7021	-1.5825	-0.4745	-0.5571	-0.5356	-1.3017	-1.9493	-1.2358	-0.2857	-0.0269	-1.8491	-2.6015	-1.4844	-0.5106	-0.2996	-1.4367	-0.9962	-0.9257
-632.8125	4.5347	-2.6645	0.9411	1.4325	1.2377	-0.7691	-0.4878	1.2578	1.2854	-0.4747	-2.0954	-0.6793	-0.7195	0.6888	-0.8371	-2.5898	-0.9190	-0.8730	-1.1081	-2.7552	-2.4212	-2.1053	-1.0911	-0.9195	-2.4278	-2.4980	-2.4207	-1.6737	-1.3968	-2.4036	-2.1929	-1.7954
-625.0000	9.8857	0.4045	5.3236	5.1713	4.6322	0.8718	3.9931	5.2708	4.7252	3.3797	1.6495	3.6257	3.5780	4.8937	0.6836	1.6630	4.0595	3.2554	1.9337	0.3167	2.7211	2.5015	1.9216	0.6256	1.2715	2.0273	0.9432	0.4075	0.3966	1.0790	0.5732	0.2113
-617.1875	10.7570	-2.3982	6.6818	6.4234	6.6168	5.9740	6.5985	6.9036	6.9189	3.9593	3.8388	6.3062	4.7126	6.3127	1.2720	4.0364	6.2904	4.5520	2.3670	2.8071	5.6643	4.7101	2.5290	0.0242	3.9548	4.8808	2.8626	0.7421	-0.1219	2.5643	1.2850	0.9211
-609.3750	10.3749	-1.4742	7.2393	7.2557	7.5737	3.6087	6.8736	7.6303	7.8431	5.2956	3.6538	7.3311	6.7879	7.8122	2.6457	5.6813	8.4753	6.8502	4.2254	3.9462	7.8934	6.9603	4.6254	1.5588	5.2557	6.6842	5.1969	3.1625	1.4868	4.3901	3.3268	2.9683
-601.5625	7.0395	-2.5958	3.7350	4.4901	6.6109	2.9144	3.4774	4.5293	6.7894	4.7583	1.7220	5.2575	5.4266	5.3608	2.0079	4.5777	5.9037	5.3148	3.6528	2.9904	6.0533	5.2902	3.8112	1.5463	4.5503	5.8537	4.6081	2.5019	1.0585	3.4545	2.1862	2.0987
-593.7500	6.3217	-2.1045	2.0280	2.4482	5.0718	0.1425	2.1337	2.0846	4.0331	4.2093	2.1702	3.2563	4.0596	2.6490	3.1920	4.5369	3.7223	4.1657	3.5702	4.0056	5.1949	4.4188	4.0987	2.3747	5.6816	5.6452	4.3971	3.0228	1.9699	4.4304	3.0934	2.4684
-585.9375	3.2713	-5.2693	-0.3195	-1.0950	1.9873	-0.4206	0.0973	-1.3550	0.5326	1.5725	0.1094	0.1410	1.6150	-1.8554	0.6590	2.1510	-0.2541	1.4188	1.7390	2.1548	2.3752	1.6087	2.6873	1.3235	3.7854	3.6325	2.8671	2.3489	1.2809	2.9097	2.1385	1.5781
-578.1250	1.6201	-4.3287	-1.1385	-2.1206	0.5449	-1.7135	-0.3394	-2.8823	-1.3063	0.9840	1.1097	-2.0561	0.5995	-3.4449	-0.0658	1.4235	-1.9724	0.2255	1.1243	3.0789	0.7748	0.5510	2.2145	1.0641	3.1087	1.9801	2.2751	2.3039	1.3891	2.5782	2.1999	1.9420
-570.3125	-0.0984	-4.4571	-2.9790	-3.6603	-1.3444	-0.7964	-2.1824	-4.0562	-3.1787	-1.1459	-0.3559	-2.7415	-0.9569	-3.1654	-1.5510	0.3985	-1.7959	0.0220	-0.0518	1.9160	0.7002	0.8720	1.8021	0.7509	2.5787	2.3072	2.5791	2.7130	2.1774	2.7459	2.6586	2.7531
-562.5000	-0.4964	-4.2414	-3.1132	-3.4298	-1.5624	-3.1113	-2.8613	-3.8304	-2.6653	-1.9177	-1.8332	-2.7730	-1.5914	-2.1308	-1.7672	-0.2366	-0.6871	0.3160	-0.3278	0.5078	0.5775	1.4625	1.7674	1.2107	1.6673	1.5645	2.1325	2.4413	2.4936	1.8689	2.3223	2.5669
-554.6875	0.2936	-2.9462	-2.7705	-3.3640	-2.2393	-1.6766	-3.1761	-3.9441	-3.6314	-2.8108	-1.9351	-3.8687	-2.8229	-3.0406	-1.3274	-1.3274	-2.1164	-1.6485	-1.3560	0.3184	-1.2648	-0.9423	-0.2529	0.1670	0.2866	-1.4477	-0.8951	-0.3076	0.1952	-0.1574	-0.1110	-0.1886
-546.8750	-0.3268	-2.7815	-2.7136	-2.7448	-2.7165	-2.2278	-3.5672	-3.2296	-3.4885	-3.8288	-2.2058	-4.2861	-4.1289	-3.5408	-2.4781	-2.0014	-3.1535	-3.3749	-2.4254	-0.1085	-2.8953	-3.2010	-1.8630	-0.2189	-0.9187	-2.5814	-2.8106	-1.9739	-0.7405	-1.3491	-1.4527	-1.3923
-539.0625	0.5995	-2.5853	-0.4712	-1.0623	-2.9911	-2.0766	-1.7888	-1.4667	-3.3915	-3.5112	-1.6913	-3.0780	-3.6216	-2.9122	-2.5920	-2.4194	-3.3286	-3.3825	-2.1020	-1.2495	-3.4937	-4.2034	-2.4952	-0.0826	-1.6585	-3.6751	-3.8465	-2.1362	-0.2363	-1.4350	-1.3757	-1.0981
-531.2500	0.7495	-2.0528	0.2008	-0.1816	-1.5366	-0.2779	-1.0522	-1.2548	-1.7717	-2.3226	-2.0335	-3.0041	-3.5070	-3.0511	-4.2769	-2.9432	-3.8572	-4.3228	-3.3710	-2.0819	-4.6772	-5.8298	-4.3497	-1.9533	-2.3551	-4.5888	-5.7170	-4.5327	-2.5064	-2.7359	-3.0125	-3.1527
-523.4375	3.5363	0.9677	3.4618	2.8232	0.6771	1.2599	1.7938	1.5403	-0.1254	-0.6013	0.1884	-0.5898	-1.3610	-0.6530	-3.0928	-0.8849	-1.6164	-2.7648	-2.1869	-0.4279	-2.6473	-4.9406	-3.7525	-1.5201	-1.3893	-3.3955	-5.3209	-4.5460	-2.2510	-2.4846	-2.9047	-3.0155
-515.6250	3.2954	0.1968	4.3299	2.8005	1.0981	3.7492	3.0940	2.1758	0.4976	-0.6917	1.0294	0.8255	-2.3004	-0.9551	-3.1266	-0.5420	-1.5698	-3.5699	-3.2984	-0.6203	-2.2128	-5.4182	-4.5941	-2.1542	-1.3536	-3.4078	-5.4698	-4.7461	-2.5526	-2.7622	-3.4192	-3.2731
-507.8125	2.9407	0.8435	5.1940	3.0737	1.2060	1.8548	4.3848	3.3432	-0.1951	-0.1737	2.7979	2.4370	-1.3454	0.2626	-1.7326	1.8189	0.8807	-2.0550	-2.0362	1.0524	0.9700	-2.9169	-2.5782	-0.7787	1.3524	-0.1148	-2.2117	-2.3086	-0.7781	0.7027	-0.5258	-1.0220
-500.0000	0.7481	-1.0063	3.5887	2.2661	1.4463	2.2107	3.6702	2.5308	0.6280	-0.4935	2.3665	2.8429	-1.1019	-0.0267	-2.6004	2.4491	1.4030	-1.4524	-1.5441	1.3849	2.3015	-1.3152	-1.3625	-0.6181	2.8574	2.3669	0.1435	-0.2776	0.7516	2.4961	1.3855	0.8353
-492.1875	1.0169	0.9100	3.3643	2.9736	1.8962	0.2729	4.1565	3.2615	1.2473	0.7527	3.5791	3.5927	0.9971	1.9199	-0.8623	3.7570	3.1652	0.9909	0.1327	2.7566	3.3663	1.0616	0.5810	-0.1964	3.9668	3.6495	2.4265	1.6827	1.5218	3.8214	3.3541	2.5230
-484.3750	-1.1286	-0.0294	1.0729	1.2370	2.1433	1.4823	2.1838	1.6646	1.8626	0.5029	2.8207	2.4506	0.6158	1.7283	-1.2723	3.1521	2.7993	1.2231	-0.1142	2.7131	3.3114	1.7939	1.0596	-0.4361	3.7020	4.0670	3.7878	2.2329	1.7146	3.8638	3.9831	3.6633
-476.5625	0.6616	2.0683	0.5747	1.0379	2.0192	-0.0850	1.2472	0.0980	0.7328	0.7122	3.5428	0.6133	0.9011	0.6634	0.1430	3.2733	1.9925	1.4013	1.1540	3.6677	3.5187	2.8812	2.6332	1.3923	4.5715	5.0897	5.9479	4.6855	4.0494	5.2271	5.8108	5.7312
-468.7500	-1.6487	-1.0067	-3.3759	-2.9712	-1.6448	0.2998	-2.8941	-4.2056	-2.5704	-2.3906	-0.2601	-3.5631	-1.8126	-2.9836	-1.5159	-0.2454	-1.9821	-0.8365	-0.7670	0.6925	0.3310	0.8369	1.0988	-0.4275	2.3192	1.7644	3.6025	2.9933	2.1190	2.7504	3.5573	3.4514
-460.9375	-3.2877	-1.3451	-4.9381	-3.9945	-3.4263	-3.1972	-4.3045	-4.5207	-3.0775	-2.6684	-1.1525	-4.2903	-1.8167	-1.7245	-0.5104	-0.2138	-1.0888	0.3058	0.4780	1.1049	0.7130	1.5617	2.4378	1.6662	2.3913	1.4633	3.4274	4.0690	3.5052	2.8892	3.5233	3.9158
-453.1250	-4.8096	-1.7535	-7.3615	-5.6975	-5.0598	-3.6058	-7.1200	-6.6766	-5.1943	-3.7441	-3.8433	-6.4621	-4.1025	-4.0441	-1.4058	-2.5676	-3.6034	-2.6831	-1.0070	-1.5890	-2.0319	-1.8091	-0.2723	0.9417	-1.0476	-1.5717	-0.4717	0.9616	1.7714	-1.2524	-0.3788	0.6763
-445.3125	-3.7743	-0.5972	-6.4357	-5.3272	-4.3591	-4.5214	-6.9551	-6.7233	-5.4406	-2.7960	-3.7850	-6.5578	-3.9651	-4.8298	-0.9438	-3.0824	-4.4131	-3.2755	-1.3305	-1.9280	-3.2333	-3.6509	-1.6010	0.0223	-1.2982	-3.2218	-3.2557	-1.4455	-0.1728	-2.5439	-2.2970	-1.8686
-437.5000	-3.1802	-1.3818	-5.4307	-4.5662	-4.1988	-3.0902	-6.0618	-5.7484	-4.8018	-2.5621	-3.9187	-5.8924	-2.1154	-4.1417	-1.1183	-3.8134	-4.2298	-2.4162	-0.2981	-2.4532	-3.7545	-3.9763	-0.6762	0.3012	-1.9353	-4.2345	-4.0668	-0.9693	0.5791	-2.9034	-3.0328	-1.9651
-429.6875	-3.4427	-0.6125	-4.1449	-3.6726	-2.9949	-3.3448	-4.4256	-4.4075	-3.1023	-1.6515	-3.5703	-4.5500	-1.1256	-3.1251	-1.3071	-3.3890	-3.2633	-1.6393	-0.1467	-2.9795	-3.5223	-3.2579	-0.0492	0.2966	-2.2003	-3.8646	-3.7642	-0.7874	0.8252	-3.2095	-2.9864	-1.6332
-421.8750	-1.7911	0.8496	-1.3197	-1.8891	-2.3522	-2.6178	-2.1935	-2.0459	-2.6709	-1.9065	-2.0467	-2.8693	-0.8039	-1.8296	-1.7395	-1.6829	-1.6679	-1.1402	-0.8154	-1.3992	-1.4903	-2.3998	-0.5050	-0.7387	-0.4394	-1.8014	-3.2589	-1.9658	-0.8904	-1.6279	-2.4517	-2.3307
-414.0625	0.3103	0.8100	1.9017	1.0280	0.2486	-0.4868	0.0015	0.3370	-0.0069	-0.9949	-0.4499	-1.0841	-0.7969	-0.6557	-2.6712	-0.2780	-0.5501	-0.5894	-1.1930	-0.4928	-0.1627	-1.5068	-0.4387	-1.4448	1.5655	0.3165	-1.9650	-1.3915	-0.7664	0.0039	-1.2806	-1.4086
-406.2500	1.5236	1.4866	4.3636	3.3873	1.1083	-0.4641	2.3775	3.1326	1.0088	0.0633	0.7378	1.2987	-0.0595	1.2908	-1.6604	0.9689	0.9935	0.1474	-0.7166	0.0795	1.5153	-0.2713	0.1177	-0.5446	2.4277	1.9086	-0.0026	-0.0172	0.8140	1.6594	0.6720	0.8880
-398.4375	0.0242	0.3497	3.4832	3.1145	0.7698	-0.6328	1.0652	3.1537	1.9407	-0.7378	-1.1548	0.8401	-1.3148	1.2058	-3.0768	-0.6058	0.4266	-1.0048	-2.5100	-1.0452	0.6172	-0.6921	-1.4207	-1.8762	1.3924	1.6890	0.7846	-0.2979	0.3627	1.4714	1.0407	0.9684
-390.6250	2.8950	2.9400	5.3561	5.0841	1.8956	-0.0001	3.0417	5.1795	2.7237	0.3659	1.2832	3.0996	0.7670	3.9596	-1.1297	1.5160	3.6429	1.6020	-0.4700	1.1265	3.4209	3.1222	0.9750	-0.3044	3.4254	3.9385	4.7389	2.7286	2.5779	4.1831	4.4013	3.9898
-382.8125	1.0929	1.0972	2.4898	2.8082	0.4449	0.9173	1.0875	2.8443	1.5225	-0.5586	0.2047	2.2082	-0.2670	2.6728	-2.5037	0.7157	2.9299	1.0069	-0.9195	0.0244	2.7752	3.7117	1.0333	-1.0924	1.8621	3.3591	5.5891	2.5743	2.0557	3.3307	4.0506	3.9227
-375.0000	-0.0864	0.8195	0.6952	1.6383	-0.6363	-2.0190	-0.6190	1.7873	-0.2310	-0.4804	-0.2285	0.9065	-0.3255	2.2320	-0.7318	0.4758	2.4958	1.0120	0.0036	-0.6356	2.2438	4.2925	1.5418	0.0371	0.9354	2.5763	6.0964	3.0454	2.8239	3.2660	5.1200	4.4828
-367.1875	-0.8768	-0.7043	-0.0940	1.0124	0.5940	0.1873	-1.0562	0.8585	0.6298	-0.2013	-2.0324	0.0149	-1.0389	0.6640	-0.2338	-1.5173	0.5119	-0.4054	-0.6952	-2.5224	-0.0760	2.0126	-0.0612	-0.4011	-1.5059	-0.2523	3.9768	0.9179	1.1931	0.7455	2.6840	2.9195
-359.3750	0.6140	0.8628	2.0898	3.1600	2.6366	-2.5740	0.0938	2.4836	2.3087	2.1296	-0.8825	0.4618	1.7543	2.1193	0.6225	-0.9788	1.0548	1.0307	1.3058	-1.6171	-0.2532	1.7278	1.1559	0.6486	-1.3834	-1.5801	2.8152	1.4086	1.9981	0.3837	1.8626	2.1816
-351.5625	-1.6118	-1.9548	-0.2062	1.0993	1.3486	-3.1082	-1.9549	0.3035	2.0875	1.0845	-1.5537	-1.0210	1.6872	0.2345	-0.4358	-2.5742	-1.1593	-0.3666	0.4799	-3.2366	-2.4748	-1.3868	-0.4551	-0.6587	-3.6089	-4.3207	-1.0843	-0.8098	0.0312	-2.8543	-1.8480	-1.1087
-343.7500	-0.9911	0.0698	-0.7044	0.7755	0.9841	-3.4655	-0.9899	-0.1028	1.8353	2.1773	-0.6078	-0.5777	3.3296	0.9386	1.6295	-1.2384	-0.5314	1.2474	2.3670	-2.1617	-2.2020	-1.2859	1.0863	0.9719	-3.0549	-4.2692	-2.1331	-0.4260	-0.0236	-3.0629	-2.1584	-1.4174
-335.9375	-1.6151	0.0074	-1.9558	-0.8244	-0.0571	-0.7897	-1.2491	-1.1780	0.1992	1.2892	-0.7480	-0.7231	3.3536	0.1692	1.4234	-1.1393	-1.0310	1.4963	3.0897	-1.5575	-2.0872	-1.6447	1.9117	1.7727	-2.3953	-3.5475	-3.1483	-0.0084	0.7548	-2.7927	-2.2430	-1.3593
-328.1250	-2.9614	-1.3384	-1.8180	-1.3762	-0.8083	-4.2702	-1.5218	-0.8442	-0.0290	1.2107	-0.0709	-0.4171	3.0964	0.6472	1.6647	0.2708	0.5372	2.4135	4.2459	0.1394	-0.4119	-0.0891	3.5229	3.5945	-0.2573	-1.4922	-2.0664	2.0701	2.9013	-1.0746	-1.1183	0.3192
-320.3125	-3.6609	-1.5831	-2.8990	-2.5148	-2.2270	-2.5559	-1.9828	-2.2124	-1.3770	-0.1004	-1.0650	-1.1971	1.2624	-0.9901	2.0794	0.3338	-0.3663	1.0237	2.9425	0.7296	-0.3406	-0.7122	2.6574	2.9850	0.6704	-0.7094	-2.7297	1.9576	2.5239	-1.2054	-1.6306	-0.3467
-312.5000	-2.4204	0.2786	-3.0975	-2.4271	-2.5378	-1.4918	-2.3441	-2.9005	-1.9005	-0.3253	-0.5094	-1.6587	-0.0640	-1.5010	1.6527	1.5274	-0.4439	0.4325	2.0785	2.2617	0.3435	-0.5433	2.2227	2.9665	2.2244	0.7526	-2.1715	2.3133	2.4872	-0.3275	-1.4846	-0.3771
-304.6875	-2.4468	-1.0633	-2.2319	-1.9948	-3.6132	-0.8572	-1.8316	-1.3975	-2.5839	-1.5382	0.3930	-0.9671	-0.6928	-0.3764	-0.0515	2.1413	0.4428	1.0129	1.7183	3.4329	1.8239	0.9765	2.7202	2.8929	3.3637	2.7769	0.1010	3.5319	3.4815	1.1523	0.0709	1.4626
-296.8750	-3.6376	-2.7120	-1.7785	-0.7831	-2.7705	-1.9690	-0.8167	-0.4689	-1.2801	-1.7213	0.7886	-0.0339	-0.8642	0.4255	-0.0028	2.0537	1.3944	1.0989	1.0337	3.4144	2.0393	2.3072	2.6256	1.4729	3.3725	3.7521	1.8365	3.5091	2.9238	2.2021	1.5716	2.0476
-289.0625	-1.3966	-1.2348	-0.0640	1.6875	-0.6700	-1.6492	0.3654	1.4650	0.4703	-0.7306	1.5205	0.9320	-0.3515	1.8675	0.8886	2.1402	2.2085	1.8385	1.3504	2.8501	2.3295	3.2400	2.7751	1.8344	2.8982	3.8520	3.8518	4.1462	3.7174	2.9851	3.4940	3.5093
-281.2500	0.4244	0.1138	1.4948	2.3305	0.9391	0.0873	1.0078	1.7855	1.5382	-0.1849	1.0334	0.7320	-0.7962	1.4416	-0.5330	0.5891	1.1393	0.5562	-0.4875	0.6968	0.6560	1.8436	0.5695	-0.1244	1.1777	2.5091	3.1865	1.8411	1.6353	2.2164	2.7886	2.4298
-273.4375	4.6784	2.7396	5.0470	5.5061	4.0176	2.8203	4.2061	4.1156	3.2294	2.1526	2.1122	2.1308	1.0938	2.7111	0.6460	0.4959	1.2585	1.0147	-0.3032	0.8819	-0.1857	1.5314	-0.2814	-0.9798	0.1613	1.1062	2.0098	0.3895	-0.0335	1.6949	2.2266	1.3895
-265.6250	5.9817	1.1588	6.5485	6.8473	5.7516	5.4142	5.4939	5.4250	5.2543	3.7188	3.1339	3.6387	2.6748	3.5483	0.7600	0.2753	1.5504	1.6242	0.2992	-0.2632	-0.6041	1.5178	-0.4079	-0.7515	-1.2318	-0.0613	1.4408	-0.3268	-0.0819	0.8402	1.5811	1.0893
-257.8125	6.8821	-1.5992	7.2980	7.0250	4.9030	2.2281	6.3284	6.3149	5.4425	4.9239	3.8477	5.4090	5.6458	5.1052	1.4429	1.4467	3.3351	3.6468	2.4994	-0.3461	0.4254	1.9940	0.7128	-0.0835	-1.9351	-0.3665	1.0109	-0.6433	-0.4822	0.2231	1.2186	0.2580
-250.0000	7.2220	-2.9942	7.4549	7.4087	5.6220	3.4536	6.9827	6.6798	6.4974	5.1333	3.5125	6.4626	6.4801	4.9062	2.6890	1.8159	3.4625	3.6668	3.2692	-0.1622	0.5091	1.0248	0.9105	0.2046	-1.8652	-1.0629	-0.2925	-1.4836	-1.4247	-1.0092	-0.5538	-1.4490
-242.1875	8.7855	-1.8424	9.0658	8.4684	6.9832	2.7357	8.1497	8.2590	6.5108	5.9518	5.1125	8.1611	7.5439	5.8812	4.2913	4.2124	5.7018	5.6390	4.8327	2.0982	3.2371	3.4869	3.1459	2.0071	0.1463	0.7793	0.9694	0.6630	0.3694	0.4426	0.7064	0.1412
-234.3750	5.9732	-4.8473	5.2109	4.7543	4.6234	3.5980	4.8313	4.5851	4.0994	3.8609	3.1471	6.0399	5.2321	3.8499	2.4635	3.3448	4.8609	4.7156	3.9429	1.3321	3.1258	3.3338	3.2279	1.9594	-0.2407	1.2696	0.4965	1.0917	0.3854	-0.4537	-0.4697	-0.4639
-226.5625	4.4820	-3.2369	2.2092	1.8476	1.4108	-0.2719	2.8952	1.9810	1.5221	2.3962	2.9890	4.1019	3.9129	3.2001	3.3308	4.1291	4.7843	4.4955	4.7260	2.9827	4.1670	4.1132	3.9770	3.7690	2.3393	3.2121	1.2566	2.7715	2.1535	1.7377	1.1291	1.0719
-218.7500	0.7813	-5.1290	-1.3501	-1.5879	-1.8378	-1.2429	-0.1876	-0.7373	-0.9769	-0.2570	1.2730	1.7185	0.9893	0.4488	1.4119	2.8228	2.5657	1.7981	2.1932	2.6800	3.4069	2.1366	1.4733	1.9094	2.4163	3.4810	0.3878	1.0949	0.6674	0.9080	0.1619	-0.1271
-210.9375	0.2064	-4.2976	-1.6210	-1.2545	-1.7405	-3.5815	-0.7235	-0.7075	-1.7346	-0.5298	1.5830	0.7345	-0.3174	-0.3610	0.9122	2.8891	1.7796	0.2189	1.5820	3.7886	3.6117	1.6444	1.1014	2.2491	3.8697	4.3322	1.1923	1.4847	1.3616	2.4138	1.3119	0.6363
-203.1250	0.6611	-3.7496	-1.2855	-0.6854	-0.8383	-1.6115	-0.5115	-0.4206	-1.8855	-0.8582	1.3997	0.5461	-1.9076	-0.7229	-0.2758	3.0651	1.0087	-0.8978	0.7648	4.7517	3.6809	1.7482	0.6052	2.3498	5.1363	5.3219	2.5143	2.2200	2.1190	3.9126	2.5993	2.0545
-195.3125	1.1093	-1.7593	-0.3132	0.6228	0.0253	-1.5218	0.7091	0.5280	-0.7660	0.2722	2.7434	1.5558	-1.4715	0.3768	1.2563	4.2214	1.9796	-0.1309	1.1139	5.9462	4.7613	2.9415	0.9859	2.5164	6.0964	6.5871	4.1253	2.5579	2.1093	5.0716	4.1647	3.2262
-187.5000	0.0470	-2.6339	-1.7596	-1.2067	-1.6523	0.4661	-1.1309	-1.9937	-2.9116	-1.3007	0.9803	-0.9242	-2.7366	-1.8796	1.0131	1.4758	-0.7402	-2.2955	-0.9645	3.4894	1.7303	0.5836	-1.2284	0.1849	2.8634	3.5006	2.2568	0.0547	-0.3192	2.5071	2.3958	0.8250
-179.6875	0.5353	-1.0545	-1.2361	-1.0546	-1.5943	0.8761	-0.5786	-1.6331	-2.2520	-0.6782	0.7858	-0.8297	-1.9145	-1.5595	-0.1733	1.5206	-0.4373	-1.8610	-1.0991	2.9071	0.6379	0.5523	-1.9945	-0.9901	1.5315	1.4876	1.5421	-0.6518	-1.1786	1.6573	1.9218	0.5307
-171.8750	2.8951	1.0856	1.2689	2.0252	0.8594	2.4202	1.9773	1.8556	1.2126	1.2947	2.2038	2.0329	1.4544	2.2559	1.5423	2.5037	1.9940	1.1375	0.7945	2.6155	1.5760	2.1412	-0.1890	-0.1604	1.1168	0.6901	2.1828	0.2101	-0.5396	1.3764	1.7655	0.7916
-164.0625	4.5676	0.8035	4.7320	6.4297	4.9868	3.3163	4.6388	5.7425	5.9302	4.3189	3.5805	4.6659	4.1698	6.2763	2.3402	2.8016	3.8863	3.9810	1.7237	1.0576	1.7783	3.5125	1.4600	-0.0511	-0.4880	0.3275	2.2266	0.5889	-0.7159	0.6432	1.4472	0.6920
-156.2500	6.1779	1.9274	7.7409	9.0412	6.3998	2.8161	5.9153	8.0851	6.8151	5.2558	3.4494	6.0942	5.7862	7.6987	1.8090	2.2077	4.3159	4.9279	2.3316	-0.3369	1.3764	2.8608	1.5384	-0.9567	-1.9489	-0.8128	0.4854	-0.4876	-1.7903	-0.5684	0.3872	-0.5624
-148.4375	4.7827	1.1072	6.3550	7.0129	5.7673	3.5702	4.6260	5.8805	6.3299	5.2120	1.2360	4.2374	5.4253	5.0742	2.0928	-0.3245	1.9570	3.5317	1.9872	-2.7598	-1.0795	0.2585	0.3436	-1.1814	-4.1136	-3.0162	-2.0453	-2.2414	-2.7126	-2.5020	-1.6684	-2.2369
-140.6250	5.9258	2.1739	7.1578	6.5369	5.9205	3.7809	5.8049	5.6846	4.9573	6.1336	2.3138	5.1569	6.4689	4.8921	4.1459	0.7782	3.0080	4.6518	3.7954	-1.3418	0.7676	1.5524	2.0329	0.5096	-2.3198	-1.2161	-0.7137	-0.9355	-1.7248	-0.8021	-0.3345	-0.9599
-132.8125	4.1844	1.0789	5.1170	4.7663	5.3034	3.4941	4.2439	4.4006	4.6631	5.4045	1.4423	5.4443	6.0936	4.3928	4.2957	1.4376	4.0180	4.7546	4.3937	-0.8253	2.4319	2.8436	3.2624	0.8450	-1.3826	0.7017	0.3212	0.3330	-1.2207	-0.8417	-0.3804	-0.5727
-125.0000	1.7965	0.8475	2.6655	3.2175	3.3243	-0.4789	2.6939	3.2928	3.2980	4.5136	2.0699	5.0367	6.2627	4.9075	4.8124	3.0488	5.8237	6.4516	5.9924	0.1663	4.8647	5.9013	5.9101	3.2710	0.3723	3.5790	3.6706	4.5526	2.4470	0.9403	1.9164	2.5328
-117.1875	-3.6964	-4.1744	-1.6563	-0.1666	0.4012	-1.5340	-0.3105	0.2589	1.3116	1.3144	0.7000	2.3105	2.8830	2.2768	2.1299	2.3719	4.1437	4.8139	4.2602	0.7865	4.7857	5.8764	5.5423	2.9402	1.9896	4.9409	4.8695	5.5694	3.1339	2.0721	2.2966	3.1791
-109.3750	-4.1204	-2.6254	-2.4759	-1.2031	-0.9469	-4.3758	-1.0633	-1.2000	-0.2534	1.4242	0.6541	1.0942	1.9019	1.2747	3.2393	3.1171	3.5951	3.9361	4.4247	3.1517	5.1731	5.8640	5.4097	4.3053	4.3155	6.2637	5.8760	6.4179	4.4664	4.1064	4.2119	4.5562
-101.5625	-5.1267	-2.8741	-5.1859	-4.9223	-3.4492	-2.9515	-3.7439	-4.8524	-3.1598	-0.7290	-1.3230	-1.8381	-1.1140	-2.9938	1.2804	0.4662	-0.6691	-0.0299	2.1500	1.8083	2.0734	2.4107	2.2841	3.0354	2.9560	4.4193	4.0772	3.9461	3.0817	2.7560	2.7904	3.1462
-93.7500	-5.9710	-3.3699	-6.0498	-5.6933	-5.0293	-6.2134	-4.4963	-5.6357	-5.4602	-1.9561	-1.6316	-3.0063	-2.1453	-4.3115	1.4946	-0.1925	-2.3447	-1.5660	1.2185	1.7851	0.5489	1.0816	0.7976	3.3295	2.6024	3.1608	3.0576	2.8659	3.0007	2.4834	2.8239	2.9029
-85.9375	-5.9329	-3.0671	-6.2256	-5.4195	-4.5702	-3.8371	-4.1830	-5.5055	-5.0263	-2.0857	-1.1807	-2.7650	-2.8303	-4.5071	0.5253	-0.6434	-3.3374	-2.9909	0.0051	1.3624	-0.5838	-0.2571	-0.6745	2.2739	0.9233	0.8412	1.8094	1.2397	1.6418	1.0010	1.8102	1.7501
-78.1250	-4.0831	-0.5099	-4.4215	-3.6883	-2.7851	-3.2631	-2.6161	-3.6086	-2.8581	-0.6632	0.9081	-1.6220	-0.9350	-2.9632	0.8878	0.8399	-1.8819	-1.6368	0.9591	2.6295	0.1955	0.5632	0.1951	2.5216	1.2779	0.9351	2.2388	1.7225	2.0405	1.2047	1.8000	1.6242
-70.3125	-4.2007	-1.6487	-4.1312	-3.5464	-2.7873	-2.5944	-3.1995	-3.5221	-2.3307	-0.9141	-1.0604	-2.1800	0.0481	-2.4025	1.1178	-0.8728	-2.4932	-0.8984	0.9809	0.1178	-0.9144	-0.0727	-0.0941	1.4283	-0.7680	-0.6517	1.1458	0.8080	1.1178	-0.3337	0.4904	0.4465
-62.5000	-2.6048	-0.3199	-1.8789	-1.0501	-0.9239	-3.5332	-2.2846	-1.2181	0.0361	0.4898	-1.7543	-1.4835	1.0608	-0.8335	1.1483	-1.6522	-1.5750	-0.1734	0.9481	-1.9048	-1.6128	-0.4446	-0.2034	0.5418	-2.8549	-2.3710	-0.0687	-0.2430	-0.1999	-1.9224	-0.5420	-0.6724
-54.6875	0.7983	1.6450	1.6434	2.3850	2.2527	-2.3687	0.4143	2.4202	2.6535	2.8252	0.2121	1.6026	2.8450	1.8117	2.0596	-0.0806	0.3345	1.2139	1.6538	0.0551	-0.1681	0.3460	0.4837	0.9802	-2.1585	-1.3201	-0.2671	-0.2625	-0.4995	-1.6331	-0.5966	-0.6780
-46.8750	3.1499	1.8778	5.1004	5.9467	6.2294	-0.6954	3.8778	5.8305	5.8856	4.5372	2.4416	4.3524	4.2949	4.8813	1.5944	2.1652	2.9355	3.1641	1.6699	1.8038	1.7554	1.5897	1.2599	-0.3220	-0.2910	0.6309	-0.0905	-0.4221	-0.9905	-0.5771	-0.4621	-0.8689
-39.0625	5.5164	2.8637	8.9913	9.9937	9.2456	1.0168	6.5829	9.8862	8.5293	5.7626	3.8361	6.6799	6.0160	8.3639	1.0805	3.9125	5.3302	5.2125	1.8496	2.8054	3.4357	3.0304	2.2849	-1.6500	0.6530	1.6797	0.2165	-0.0396	-1.2812	-0.0310	-0.4597	-1.0168
-31.2500	6.0350	3.6694	9.8300	10.8028	11.0051	1.7528	7.3776	10.4870	9.6771	6.7560	5.0437	7.9041	6.3794	9.2859	1.6721	4.8984	6.4483	6.2257	2.4780	3.5115	4.6288	4.0781	3.3212	-0.6071	2.3351	3.8865	1.4089	1.4452	-0.2678	1.5290	0.7266	0.1977
-23.4375	7.1004	4.3183	9.6824	10.5225	10.3437	2.1670	7.7850	10.2419	8.7179	6.9568	5.5077	8.5137	6.6570	9.6125	3.1722	6.0832	7.8906	6.8297	3.6909	3.8845	7.0265	5.8502	4.6582	0.7158	3.9765	6.4287	3.2945	2.9512	1.1447	2.9300	2.0089	1.7527
-15.6250	3.7834	1.7670	7.2191	8.4500	8.4790	0.7267	5.4136	8.7567	8.5186	6.0820	3.5097	7.9683	6.0779	8.7266	1.9743	5.3409	7.9066	6.5258	3.3961	2.9811	7.4494	6.6242	4.5986	0.5105	4.0566	7.0613	4.1193	3.8898	1.7290	3.0340	2.1781	2.3808
-7.8125	2.7681	1.7993	6.0947	7.4361	6.9334	-2.6336	4.5496	8.0616	7.7034	6.0767	3.9554	7.9259	6.8101	8.4677	3.7730	6.3420	8.3468	7.5457	4.9825	4.3777	8.8549	8.0659	6.2063	3.3923	6.0642	8.5605	6.2629	6.3258	4.7146	5.6210	4.7246	4.8853
0.0000	1.2062	0.1079	3.9292	5.2629	5.3333	-0.6405	3.3574	5.7717	7.1613	4.1804	3.0688	6.7949	5.1396	6.1579	3.6150	6.0725	6.7541	5.6526	3.8162	4.9618	8.3629	7.1441	4.9372	3.1515	6.9831	8.9418	6.1899	5.2834	3.9959	5.8789	4.7007	4.0994
7.8125	-0.5725	-0.3117	2.2716	3.0286	2.3314	-3.4265	2.3947	3.6366	4.2968	2.5901	3.0702	4.9244	3.8696	5.0074	2.4045	5.2331	5.3004	4.3057	3.0839	4.7158	6.7416	6.1993	3.7127	2.9713	6.0257	7.7345	5.6998	4.0430	2.8243	5.1120	4.2827	3.0325
15.6250	-4.7511	-3.7617	-1.8680	-1.1784	-1.6056	-3.2704	-0.9563	-0.6186	1.1149	-0.4974	-0.2974	1.2186	0.0111	0.7799	0.3073	1.4853	0.6591	0.0414	0.6930	1.2428	2.4914	2.3878	0.7272	1.5034	1.9614	3.2833	2.9742	1.4381	1.1333	1.9482	1.9208	0.9470
23.4375	-4.3795	-1.4118	-3.1259	-1.9125	-2.7067	-5.1055	-2.2255	-1.8424	-0.6516	-0.9017	-1.5922	-0.9476	-0.8440	-0.6506	1.5319	-0.1763	-1.2497	-0.8731	0.8466	-0.4377	-0.0018	0.7697	0.2650	2.6561	0.2526	0.2018	1.7277	1.0493	1.5903	1.1431	1.7665	1.0808
31.2500	-6.1252	-2.2644	-6.4983	-4.4033	-4.5284	-3.5528	-5.8023	-5.2184	-3.3472	-2.6130	-4.9900	-5.3845	-2.9615	-3.9096	-0.5645	-4.3411	-5.4483	-3.6487	-1.0977	-3.6144	-4.5832	-3.2249	-2.6038	0.8298	-3.1292	-4.0321	-1.8911	-1.9806	-0.9536	-2.6042	-1.4340	-1.6838
39.0625	-5.5266	-1.8317	-5.0297	-2.9757	-3.5789	-5.1936	-4.6042	-4.0622	-2.4176	-1.0793	-3.8370	-4.1718	-1.1325	-2.8303	0.2868	-3.5760	-4.2988	-1.9434	0.8019	-2.5689	-4.0153	-2.3015	-0.9059	2.0858	-3.4654	-4.8532	-1.9538	-0.6880	0.3586	-2.6854	-1.1481	-1.0498
46.8750	-6.2498	-3.4085	-5.0098	-4.1988	-4.8861	-3.6591	-4.5890	-4.0283	-3.3935	-2.7883	-2.9545	-2.9420	-1.8245	-2.5878	-0.4235	-3.7599	-3.6703	-1.5877	0.0940	-3.0123	-4.3044	-2.6636	-0.3858	1.6925	-5.0382	-6.3137	-2.7966	-0.4951	0.1532	-4.4093	-2.3550	-1.8783
54.6875	-3.6277	-1.0490	-1.7287	-1.8455	-3.6647	-2.7072	-1.5396	-0.8927	-2.5064	-2.0827	-0.6927	0.1470	-1.2730	-0.2196	-1.0008	-1.3802	-0.9577	0.2506	0.5258	-1.5530	-2.4011	-1.3473	0.8541	1.8090	-3.7916	-4.5262	-2.4520	0.6706	0.7703	-3.5095	-2.0910	-1.4885
62.5000	-1.6832	-0.5582	0.9700	0.4943	-1.6703	-0.1865	1.1158	1.4406	-0.7054	-0.8467	0.4588	2.3795	0.3320	1.5183	-0.1935	0.1143	0.5031	1.5736	1.0443	-1.0055	-0.5498	-0.4937	1.7179	1.5059	-2.8310	-2.8228	-2.3225	1.3620	1.0795	-2.5502	-1.7772	-0.9619
70.3125	-1.2648	-0.6256	0.4290	0.3031	-0.8781	-0.2106	0.8902	0.6136	-0.1356	-0.1591	1.1799	1.3134	0.5768	0.8229	1.1432	0.8373	0.2126	1.6390	1.1519	0.5570	0.4852	-0.3156	1.6146	1.4052	-0.5780	-0.4224	-1.4265	1.5992	0.9569	-1.4562	-1.4715	-0.6149
78.1250	0.3157	0.0308	1.6585	0.9163	-0.2765	1.6871	2.7970	1.2789	-0.2860	0.7703	3.1234	2.3191	0.7127	0.8989	0.7798	2.8386	0.9702	1.4040	1.1921	3.0501	2.6407	0.5287	1.4530	1.3186	2.5653	3.0973	0.3673	2.5873	1.6216	1.2841	0.4822	0.9053
85.9375	1.7850	0.1779	4.9729	3.1483	2.3651	4.4684	5.7434	3.4442	2.4788	2.5666	4.7525	4.6413	1.0815	2.2300	0.5268	4.2408	2.1521	1.0096	0.2158	4.0822	3.7164	1.0390	0.7308	0.1834	4.0926	4.8725	1.5062	2.5584	1.2134	2.5467	1.5845	1.3668
93.7500	4.1818	2.1971	6.3548	4.5823	3.7114	3.4725	6.4543	5.2622	3.5227	3.3107	3.7295	5.7662	1.3969	3.6807	1.0133	3.9634	3.1133	1.0120	-0.0099	2.7406	3.6388	1.4526	-0.0780	-0.6216	2.3773	3.6452	1.2542	1.1786	0.0596	1.4781	1.0087	0.5673
101.5625	3.9991	0.9657	5.8674	4.7292	4.7975	3.9943	5.3691	5.1455	4.6056	3.2669	2.5640	5.6133	1.1681	3.3270	-0.1957	3.1839	2.8109	0.4034	-0.8020	1.6962	3.2495	1.3184	-0.7609	-1.8183	0.9211	2.5258	1.1725	-0.4647	-1.0150	0.4978	0.0123	-0.6448
109.3750	7.9218	3.4624	9.2184	8.1739	7.5154	4.5832	7.6994	7.8613	6.8329	5.4596	4.6934	7.5620	3.9191	5.8434	2.1015	5.0843	5.2307	3.5589	1.3501	3.9129	5.4108	4.0509	1.3996	0.0705	2.9163	3.7815	3.4139	1.1902	1.1381	2.4587	2.3128	1.1026
117.1875	7.4957	1.6052	6.5307	5.8035	5.7430	3.9129	4.5570	5.2345	5.5492	3.6943	1.6898	4.6367	2.3691	3.8969	1.1539	2.5586	2.7652	2.2806	0.3377	1.6755	3.2214	3.1024	0.5741	-0.2816	1.0985	2.0816	2.3168	0.4986	0.9731	0.6425	0.9633	0.5799
125.0000	7.0273	-0.2518	4.5875	4.4910	4.1334	0.3542	2.7587	4.0636	3.6370	3.3371	1.2938	3.3031	2.8631	3.8710	2.5023	2.6853	2.7761	2.9805	2.2392	1.7718	3.4118	4.0831	2.4030	2.2539	1.4527	2.5736	3.5539	2.5142	3.6153	1.1892	1.9524	2.4906
132.8125	4.6557	-3.2408	1.9451	1.9033	1.6414	0.4363	1.1254	2.0750	1.6888	1.2843	1.3697	2.5391	0.2107	1.9178	0.3486	2.2526	1.5977	0.7811	0.2089	2.2395	2.7055	2.4687	0.3548	1.3538	1.8366	2.7089	2.4012	1.0092	2.9957	0.7435	0.9806	1.1881
140.6250	4.4568	-3.4369	1.6290	1.1270	-0.2927	-1.6640	1.2129	1.4606	-0.5297	-0.1388	1.7686	1.9106	-0.8138	1.3225	0.9297	2.7815	1.3896	0.4252	-0.2420	3.0781	2.7678	2.6428	-0.0736	1.7344	2.4661	3.1191	2.6552	1.0216	3.3375	1.7071	1.5966	1.4303
148.4375	2.3376	-4.7809	-0.5149	-0.8650	-1.8790	-0.3550	-0.7343	-0.9254	-1.8550	-1.8246	0.4687	0.1143	-1.7807	-0.4744	0.0227	1.3448	-0.0191	-0.2801	-1.2166	2.5469	2.1759	2.0490	-0.2502	1.1432	2.2072	2.8381	2.3305	0.4777	2.5553	1.3102	1.3707	1.0627
156.2500	1.6309	-2.7155	-1.4192	-1.2998	-2.4764	-2.4743	-0.8395	-1.4152	-2.0875	-1.9486	2.0258	0.1795	-1.3692	0.2054	-0.9094	3.0124	1.6469	0.6474	-1.2630	5.0515	4.1075	2.9493	0.1582	1.0934	4.5908	4.8571	3.0135	0.1129	2.0063	3.5993	2.7273	1.5345
164.0625	-0.2252	-3.5111	-3.5249	-3.2196	-3.9632	-0.5933	-2.0053	-3.0877	-3.3154	-3.9253	1.5229	-0.5916	-3.6359	-1.5837	-2.7124	2.3311	-0.1154	-2.0539	-4.6918	4.3711	2.6991	-0.0724	-3.3084	-1.6730	3.6293	3.4963	0.0495	-3.3685	-1.0871	2.3170	0.7307	-1.0940
171.8750	-0.2418	-2.4733	-2.4521	-2.2888	-3.4297	-1.3790	-1.1183	-2.2607	-2.8083	-3.4924	2.2873	-0.4525	-4.4429	-1.8355	-4.1975	1.9194	-0.8733	-3.7577	-6.3872	3.5605	1.5266	-2.2713	-5.5717	-3.1433	1.9258	1.6427	-2.8784	-5.7515	-3.4375	-0.0238	-1.5011	-3.4592
179.6875	2.1899	-1.8816	0.6724	1.2288	-0.3912	1.5839	1.6836	1.0127	0.1167	-2.2083	3.1435	1.9898	-3.5187	-0.0265	-4.6756	2.4703	-0.5468	-3.6963	-6.9696	3.8072	1.5763	-3.3615	-6.6814	-4.2932	2.2747	1.5128	-4.4872	-7.6101	-5.7634	-0.3837	-2.6984	-5.2695
187.5000	4.6630	-1.1267	4.8697	5.4094	3.4639	1.9822	4.7174	4.7622	4.2784	-0.4905	3.9894	3.7946	-1.1472	2.6866	-3.2913	3.1340	0.8523	-2.1217	-5.8492	4.1241	2.0711	-2.8212	-5.5909	-4.2358	3.3608	1.8090	-4.5504	-7.2760	-6.1019	0.2954	-2.2879	-5.2969
195.3125	6.8092	0.3133	7.3298	8.1007	6.0824	4.8733	5.7378	7.0887	7.1771	1.1560	3.0975	4.2221	1.7444	5.3651	-2.3686	1.8975	1.5137	0.1854	-4.0515	2.9122	1.8343	-1.9183	-3.8928	-3.9860	2.1571	1.5276	-4.2168	-6.2188	-5.8433	-0.2229	-2.5510	-5.2396
203.1250	8.7710	3.8082	8.2827	10.5545	10.1210	5.7507	6.0921	9.5392	11.6440	4.9161	1.3686	5.5936	5.3638	8.9316	-0.9423	1.3281	4.0132	4.2637	-0.9795	1.1690	2.9143	1.2678	-0.2599	-3.0098	2.2066	2.6746	-1.3754	-3.1186	-3.8076	0.8235	-1.0001	-3.0783
210.9375	10.2994	3.5057	10.0765	13.4719	13.1346	4.2589	6.7837	12.5665	14.9472	7.4919	0.6300	8.1704	8.6477	12.8902	1.5083	1.9264	7.4851	9.1270	2.5328	0.9519	5.0775	6.1175	4.3128	-0.6793	2.8012	3.8422	2.7888	1.5510	-0.0138	2.6082	1.8806	0.3724
218.7500	8.9622	0.8491	9.7003	13.6780	14.0084	3.4289	5.6678	12.9146	15.8731	7.7915	-0.1169	8.7309	8.3756	13.1842	1.6886	1.4192	8.2142	9.9408	2.8952	1.0692	4.9099	7.7957	5.9476	-0.0691	3.0254	4.3337	4.7696	3.1631	0.8634	3.0824	2.2987	1.2372
226.5625	9.7184	2.0210	9.8382	13.2924	13.4050	2.3469	5.5885	12.8592	14.4321	7.9824	-0.0079	8.9646	8.8010	13.6928	3.2841	1.7641	9.4206	11.0753	4.2776	1.1061	6.2528	10.2745	7.8451	1.3609	3.8493	5.7952	7.6859	5.4099	2.6335	4.5156	4.6493	3.8410
234.3750	10.2833	1.2155	9.9560	12.2636	13.0066	4.3564	5.7560	12.0155	14.0007	7.1446	0.7529	8.3304	7.7776	12.7678	2.6477	2.1167	9.0049	10.3012	3.1470	2.4721	6.6504	10.7767	6.6758	0.1681	5.3515	7.1028	8.0694	4.0699	0.5190	5.3914	4.7855	3.0255
242.1875	11.8158	3.3163	10.9413	12.3019	12.6826	2.8665	6.2682	12.0386	12.6372	6.1906	1.1287	7.0256	6.4206	11.8175	2.5665	2.2814	7.0960	7.6626	1.4595	3.2010	5.4160	7.9536	3.5374	-1.9242	5.0077	5.8834	5.5349	0.1970	-3.1831	4.2389	2.6894	-0.4873
250.0000	11.0196	3.0943	8.4132	10.0931	10.4133	5.0390	4.0585	9.6205	10.9423	3.5766	-0.0887	4.2605	3.0285	9.0484	-0.0606	-0.4841	3.2472	3.5772	-1.9533	0.1629	1.4103	3.1896	-0.9045	-4.4716	1.0678	1.5457	0.9606	-4.6916	-7.0046	-0.2189	-0.8946	-4.0339
257.8125	12.7034	5.6779	10.4111	10.9586	9.8465	5.5240	6.1739	10.3610	10.1021	3.3214	2.8054	4.7198	2.0921	9.0542	0.7962	0.1766	2.4803	1.5944	-3.2105	1.4437	0.4176	0.9840	-3.4481	-5.2034	0.5494	-0.2051	-1.7861	-7.4748	-9.2093	-1.0449	-2.4998	-6.4806
265.6250	13.6319	5.7186	12.2339	11.3433	10.4190	10.3962	8.3815	10.7476	9.6789	2.1569	3.1784	4.6285	-1.0489	7.2898	-0.6535	-0.6246	-0.2811	-2.6827	-6.5957	0.4115	-2.9707	-3.4768	-8.1804	-8.5811	-2.6462	-4.3900	-6.7431	-12.5750	-13.5009	-4.9779	-7.0528	-11.2726
273.4375	15.3750	7.4342	14.8861	13.8244	11.9860	10.9277	11.4710	13.0865	11.2186	3.0315	6.2293	6.2420	-0.3155	9.1151	-1.8595	0.9014	1.0205	-2.0687	-6.0036	0.9814	-2.8302	-4.0244	-8.1170	-8.2209	-3.8979	-5.7040	-8.8546	-13.2572	-13.5598	-6.2585	-8.1422	-12.0622
281.2500	14.6651	6.0617	13.2131	12.8640	12.1843	11.9828	10.7803	12.1058	11.5504	2.7147	5.3861	6.0390	-0.0170	8.8464	-2.5716	0.3030	0.3299	-2.2757	-6.7970	-0.5211	-3.7478	-6.0060	-8.9594	-9.6689	-6.2562	-8.5656	-11.8740	-14.7844	-14.9417	-8.8876	-11.0149	-14.4174
289.0625	16.5593	7.4606	14.3095	14.3103	13.5159	10.8313	12.2357	13.8717	13.6370	4.4320	7.4417	8.3437	2.7743	12.1549	0.1250	2.9520	3.1286	0.8744	-4.7870	1.3124	-1.9160	-4.1948	-7.0318	-7.8777	-4.5958	-7.5561	-11.1216	-13.1447	-13.2033	-7.8708	-9.8283	-13.1578
296.8750	15.9346	4.3563	14.7935	14.3209	13.6845	10.6582	12.8442	15.3263	14.4714	4.5781	7.1672	10.4155	3.8654	13.8412	0.6857	3.3992	4.7642	2.8304	-3.1711	1.4648	-0.9972	-2.2322	-4.7526	-6.2352	-3.3775	-5.9046	-8.7419	-10.3375	-10.5882	-6.7092	-8.3684	-10.6026
304.6875	16.5403	2.8430	16.9792	16.9165	16.5407	8.5426	14.6062	18.4055	17.0918	7.5839	7.7565	13.4810	6.9570	17.3534	2.2130	5.0885	8.4391	7.3371	0.4133	2.5485	1.4119	2.7769	-0.1525	-3.5590	-2.2006	-3.5823	-4.3516	-5.2479	-6.8179	-4.3498	-5.3254	-6.6895
312.5000	17.1810	1.9115	18.8644	19.4348	18.9391	9.5338	16.3989	21.4343	20.0707	10.0890	8.8902	16.7323	10.4545	21.3834	4.2773	7.1063	12.6988	12.3865	4.1414	3.3651	5.2828	8.8873	4.9429	-0.4883	-0.7860	0.3823	1.4322	0.6833	-2.2861	-1.5234	-1.6469	-2.2022
320.3125	17.0075	1.0749	20.7440	21.3533	21.0747	8.7095	18.2458	23.7653	23.0120	11.7085	9.3924	19.2295	12.7892	23.8126	5.5525	9.0163	16.2841	15.8420	6.6439	3.8961	8.7349	13.6187	8.7811	1.5933	1.9047	4.9392	6.4208	5.0294	0.7802	1.7520	1.6405	1.0504
328.1250	19.8322	2.1222	23.5829	24.5658	23.8482	10.3976	20.5418	27.0057	25.0636	13.6963	10.2741	21.3532	15.2022	26.5164	6.4471	10.0051	18.6210	18.3276	8.3461	3.9330	10.5234	16.2678	10.9517	2.4645	2.3370	6.3585	8.4612	6.3192	1.4049	2.4108	2.1832	1.6557
335.9375	20.4127	2.0918	24.6386	26.0740	26.0138	10.5198	20.4802	27.7704	26.8980	15.5717	9.6374	20.6106	16.1079	27.1206	7.0542	9.2500	19.0318	19.3565	9.0982	3.7754	10.4377	17.5632	11.8897	3.1008	2.1410	6.9507	9.3614	7.1099	1.8991	1.9504	2.0225	1.8012
343.7500	20.3671	1.4038	26.4453	28.1461	28.0400	8.3201	20.9342	29.3797	28.0999	17.1101	9.0766	20.4550	17.6516	28.2068	8.5988	9.0632	19.5888	20.6023	10.0869	3.7475	11.0793	18.7455	12.2128	3.3221	3.1233	8.0408	9.7718	6.6186	1.7066	2.9971	2.2380	1.2879
351.5625	21.9081	2.1546	28.8617	31.1222	32.3897	10.6068	22.7623	31.7142	31.7341	18.7853	10.0473	21.7396	18.6979	29.9763	8.9353	9.9796	20.7579	21.3999	10.0652	4.0073	12.1276	19.4193	11.9778	2.9110	4.6687	9.7818	9.9094	5.9154	1.0438	3.6619	1.8294	0.5661
359.3750	25.2043	4.9945	32.6532	35.3713	36.8971	10.9499	26.4644	35.3135	34.4046	21.7581	12.9561	24.8779	21.9365	32.9812	10.6396	13.3733	23.4071	24.3787	12.7312	7.5608	15.5757	21.8634	14.6336	5.1206	7.3196	13.5320	12.0075	8.3696	3.2794	6.3797	4.4871	3.0988
367.1875	23.2796	1.7154	32.5922	35.2282	37.6801	10.6881	26.2636	35.3058	34.8711	22.0169	13.4851	25.7282	22.5994	32.8272	11.8980	14.8080	23.7703	24.7981	13.2376	8.6004	16.1783	21.8025	14.7597	5.1835	7.6586	14.0274	11.3895	7.4968	2.7627	6.1458	3.6592	2.4066
375.0000	21.6224	2.7211	32.7478	35.0385	36.8425	7.9428	27.0256	35.7758	33.6290	22.6330	15.5218	27.1298	23.6939	33.6530	14.3020	17.0817	25.4293	25.9606	15.1748	10.7032	17.9440	22.7718	16.3485	7.1742	9.4492	15.1959	12.1277	8.8424	4.3506	7.2466	4.3492	2.8094
382.8125	17.8235	0.4824	32.1342	34.8356	36.7063	8.4383	27.6049	36.2814	34.9081	23.0424	15.9115	28.5806	24.6028	34.6595	13.1838	18.1101	26.6617	26.9119	16.2045	11.4824	18.7715	23.6362	17.4551	8.1151	10.0415	15.9271	12.7727	10.4936	5.9241	7.8001	5.1371	4.2073
390.6250	16.7303	-1.1117	33.0376	35.4421	37.1876	4.3622	28.8856	37.4416	35.5910	24.6300	17.2737	30.4935	27.0210	36.5410	16.2445	20.0704	28.8086	29.5606	19.2136	13.4191	19.8078	25.7801	20.2657	10.9238	10.5905	16.3254	14.7148	13.6940	9.1607	8.4856	6.5698	6.7870
398.4375	14.7004	-2.7410	31.2679	33.3674	35.7326	4.4091	26.9339	35.5522	33.5491	23.6608	15.5731	29.2765	25.6767	34.2094	15.7987	18.7201	27.1721	27.7562	18.7484	11.9643	18.2677	24.4463	19.9046	10.8268	8.5225	14.4706	14.2054	14.1989	9.4113	5.7675	4.5078	5.2944
406.2500	14.9406	-1.5098	31.9111	33.2547	35.4579	3.6805	28.2127	35.8800	33.9473	24.7515	17.4189	30.3981	26.8950	34.9051	16.1444	21.2383	28.6533	28.9929	19.6841	14.0536	20.9006	26.6028	21.4987	12.5040	11.6621	17.6736	17.0656	16.3510	11.3621	8.7634	7.0862	7.5760
414.0625	14.5706	-1.5167	31.0412	31.1214	34.0127	6.4831	28.4727	33.9556	32.6111	24.6703	18.2743	30.8993	27.7662	34.6238	16.9954	23.5487	30.2163	30.5398	20.6902	16.1073	24.4501	29.2910	23.6962	13.9974	15.1561	21.9878	21.0243	18.8191	13.5243	12.4278	10.4948	10.7339
421.8750	11.4530	-3.3000	28.1202	27.9613	31.7442	2.4696	26.4685	31.1394	30.2381	23.7969	17.5636	29.6290	27.8345	33.5566	16.9429	24.4939	31.0652	31.3633	21.0332	17.4778	26.7995	31.7625	24.6854	14.0021	17.7647	25.5556	23.9399	20.3375	14.1996	15.3930	12.9630	12.6999
429.6875	9.2217	-4.1452	26.8667	27.0567	30.8916	2.0191	24.8455	30.4305	29.4562	23.1141	16.7081	28.8302	27.4090	33.1305	16.5392	23.8316	30.8581	31.3525	20.5273	17.1688	27.3097	32.3984	24.3632	13.4758	18.3267	26.7259	24.9004	20.1065	13.6115	16.3836	13.1518	12.4060
437.5000	10.0315	-1.9061	26.9337	27.4167	31.3756	1.7782	24.8337	30.1077	29.7577	23.9035	16.8731	28.6949	26.7738	32.2568	16.3723	23.6114	30.7906	30.5978	20.3608	15.7421	26.7811	32.2812	24.0136	12.9417	17.5658	26.1287	24.9784	19.7281	12.8500	15.7250	12.4879	11.6759
445.3125	11.7205	-1.1811	27.0437	27.5538	31.7848	2.9626	25.4427	29.5828	29.2402	24.5564	16.7727	28.2097	26.5223	31.4022	17.6528	23.2092	30.0961	30.1458	20.5260	14.6996	25.9898	31.6022	23.5718	13.4068	15.9742	24.3123	24.1841	19.2262	13.0115	14.5104	12.1794	11.6334
453.1250	12.9115	0.5708	27.8107	28.0696	32.2469	5.5626	26.5495	29.5586	30.0605	25.1083	18.1185	27.8438	25.7933	30.4571	18.0313	22.5173	28.8108	28.9177	19.6390	13.8117	24.3490	29.7643	21.9460	12.3158	13.7053	21.7089	21.7481	17.5690	11.5605	12.3563	10.5000	10.3724
460.9375	11.9815	0.6370	27.2775	26.9204	30.9719	4.8773	26.7649	28.4122	28.0801	24.3656	18.4034	27.4029	25.1429	29.2851	17.4605	22.0337	27.8400	27.6784	19.2893	12.8136	22.5712	27.7574	20.5718	10.7463	11.7936	19.0388	19.0411	15.6949	9.7406	10.1215	8.6108	8.4305
468.7500	8.8674	-1.6078	24.1009	23.2458	28.7897	3.8301	23.9260	24.9054	25.1503	22.1303	16.6068	25.2492	22.5988	25.9278	15.3302	20.3456	25.2990	25.1689	17.3232	11.4759	20.3713	24.8739	18.7126	9.6152	9.9638	16.1017	16.1660	13.7491	8.3090	7.7970	6.1505	5.9850
476.5625	8.8497	0.4672	22.0196	19.9647	24.8109	3.8195	22.3877	21.7051	20.8558	19.5840	17.0791	22.6561	20.0460	22.7257	14.8535	19.7468	23.1124	23.0865	16.0914	12.4019	19.7096	23.2339	17.7587	9.1786	10.5553	16.0184	15.3062	13.5187	8.4364	8.3420	6.6650	6.0900
484.3750	7.1436	-0.0465	17.5966	15.6533	21.7650	5.2263	19.4977	16.8200	17.6553	17.5286	15.5517	18.7260	17.0785	18.1529	13.0733	17.5582	19.5765	20.1912	13.9177	11.5434	17.4022	20.9570	15.5761	7.6933	10.1699	15.5194	14.1215	11.7254	7.0053	7.9781	5.9520	5.2737
492.1875	6.8384	1.5854	15.4646	14.0472	20.2352	2.4114	17.1728	14.8518	15.3491	17.4768	14.0924	16.3076	17.4136	16.5959	13.6606	16.0669	17.9507	19.6930	14.7618	11.3082	16.1049	20.2522	15.8819	8.6077	10.5684	15.4845	14.4440	12.3388	7.8180	8.9045	6.8400	6.3722
500.0000	3.4745	0.1254	11.6077	10.8656	17.5055	2.1800	13.7723	11.7941	13.2971	15.7721	11.5595	13.6285	15.7049	14.4350	13.0199	13.5554	15.2293	17.7763	14.0853	10.0497	14.2571	18.6238	15.0399	7.6188	10.5683	15.3780	14.0623	11.7184	7.3199	8.0586	6.2135	5.7292
507.8125	2.9295	0.5618	9.8795	8.9126	15.3522	-0.1136	12.0496	10.0242	10.5643	14.6820	11.0153	11.9858	14.3335	13.0168	12.6223	12.7184	14.2844	16.5222	13.1708	9.9289	13.7852	18.1880	14.0089	6.6208	10.2857	15.3167	14.1290	10.7415	6.4369	8.3373	6.5195	5.5007
515.6250	1.4479	-1.2156	8.4696	7.2224	13.1148	0.2423	9.6304	8.1739	8.8198	12.1281	8.5268	9.6250	11.3254	10.4975	10.5757	9.7859	12.0620	13.9474	10.2999	7.2689	11.6784	16.1837	11.5938	4.4394	7.8064	13.5499	13.1250	8.6642	4.1470	6.6481	5.2215	4.3338
523.4375	0.6158	-0.6158	8.8272	7.9671	12.6499	-2.3545	9.5429	8.9981	9.2765	12.5179	8.5925	10.0341	11.9378	12.0228	10.8733	10.4956	13.8868	15.5954	10.9781	8.0574	13.3968	18.6310	12.9786	5.3493	9.6589	15.4629	15.4326	10.2166	5.5381	9.0145	7.5751	6.0086
531.2500	-0.9140	-1.1983	5.1314	5.2820	10.3881	-1.4218	6.4654	6.1239	7.1706	11.0882	5.5672	7.5164	10.7784	10.5454	9.5281	7.8210	12.2062	14.5075	9.7682	5.8680	11.8687	17.3668	12.0605	4.6730	8.3886	14.0613	14.5433	8.9031	4.6490	8.3058	7.0886	5.4315
539.0625	0.1951	0.6144	3.0009	3.7593	9.7116	-3.0758	4.5669	4.4909	6.3741	11.1797	4.2793	5.6798	10.9387	9.9637	9.4549	6.3025	11.3898	14.8479	10.3753	3.8299	10.5631	16.9080	12.7209	5.5985	5.9716	11.7534	13.4712	9.7166	5.6269	6.5659	6.6462	5.8248
546.8750	-0.1245	0.4215	1.5909	2.1184	8.5826	-2.0985	3.8399	3.4929	5.3613	10.3855	4.2908	5.6306	9.9386	9.1754	8.9638	6.4501	10.4486	13.9178	9.6415	3.9353	10.0493	15.4016	12.0650	5.5058	5.9587	10.9291	11.9862	9.0281	5.7399	5.9369	5.7383	4.8379
554.6875	-0.6540	-0.2483	2.5171	2.7193	7.9720	-2.9283	5.1073	4.3069	5.6644	9.8457	4.7936	6.2378	9.0553	9.2997	8.2735	6.4858	10.0867	12.4063	8.1321	3.6566	9.1685	13.2834	10.1775	4.7144	5.4494	9.8203	9.5198	7.3093	4.5570	4.6085	3.9972	3.0526
562.5000	-1.1987	-0.1082	4.1363	3.5849	7.3722	-1.0884	6.8368	5.2754	5.3451	8.7855	5.0278	6.9357	8.2666	9.3545	6.7376	5.7390	9.3705	10.7184	6.6279	2.1797	7.5728	11.2124	8.2630	3.1546	3.8388	7.3995	6.8733	5.6631	3.1601	2.5957	1.9517	1.5721
570.3125	-1.8424	-0.6363	4.9333	4.2095	7.7389	-1.2237	8.0037	6.2053	6.0249	8.5422	5.6496	8.2011	7.2752	9.7125	5.8956	7.2785	10.1915	10.1995	5.0789	4.0145	8.3394	11.1378	7.1643	1.9908	5.8658	8.4461	6.6198	5.4415	3.0772	3.7504	2.4342	1.6546
578.1250	-1.1874	-0.6997	4.8240	3.7664	7.0586	-1.2668	7.6894	6.1871	5.0076	7.9727	5.8929	8.5831	7.0408	9.7770	6.2313	7.8785	11.0222	9.8885	4.4004	4.8136	9.7319	11.3491	6.4642	2.3149	6.7334	9.6031	6.6522	5.3123	3.5274	4.5535	2.8184	1.8743
585.9375	-2.3071	-2.1677	2.7775	2.3256	6.9792	-2.0150	6.2511	4.6957	5.3246	7.5237	5.5177	8.0229	6.6843	8.7359	4.0257	7.5119	10.8823	9.2704	3.6864	4.5570	9.9416	11.1760	5.9340	1.5110	6.4443	9.7510	6.6446	4.4421	2.7588	4.4688	2.6002	1.6171
593.7500	-0.7132	-0.8767	3.0727	3.3295	7.5276	-2.8236	6.8505	5.1198	5.7272	8.3637	6.4148	9.3943	8.9775	10.1239	4.6563	9.6976	13.2484	11.7272	6.0398	7.4085	12.7029	14.0709	8.6509	3.2612	9.5307	12.7936	9.4586	7.0467	5.0481	7.6040	5.6579	4.7048
601.5625	-1.1038	-0.0635	0.1891	1.1268	6.6916	-1.4414	3.7101	2.1059	4.1612	7.8665	3.4738	6.6322	8.3271	7.6756	4.6042	6.9958	11.3154	11.1514	6.2710	5.1283	10.9689	13.8096	8.9767	3.2057	8.2247	12.2479	9.8273	7.2542	4.8871	6.3123	4.7866	4.3179
609.3750	0.0602	1.9677	-0.1596	0.3030	5.7366	-2.3630	2.6141	0.9248	1.6090	8.1170	3.0300	4.7692	8.6989	6.3495	5.5770	5.8389	10.4297	11.7065	7.5359	4.4220	10.5961	14.7010	10.5198	4.2250	8.0468	12.9316	11.5175	8.3223	5.4112	7.4518	6.4788	5.3036
617.1875	-2.3679	-1.4178	-1.5034	-1.9622	3.6273	-2.9395	0.2170	-1.1876	-0.4985	6.2297	0.8055	2.3234	6.5337	3.8661	4.3221	3.5083	8.0788	9.7244	5.7723	3.2326	8.9408	13.4443	9.2223	3.4219	7.7093	12.2322	11.4545	7.1637	4.5556	7.4014	6.1821	4.6171
625.0000	-2.5638	-0.5693	-1.3380	-2.2167	2.2516	-6.2053	-0.3253	-1.0171	-1.4986	5.5223	0.0511	1.7857	6.1899	4.4792	3.7713	3.2084	8.3489	9.7228	5.6592	3.6108	9.1032	13.7368	8.9029	3.4304	8.5561	12.2788	11.7163	7.1658	4.2225	8.0878	6.8641	4.6496
632.8125	-2.7339	-2.1970	-1.7638	-2.6772	1.5830	-4.3742	-0.2030	-1.3124	-1.7375	5.2308	-0.0051	2.0025	4.9449	3.9307	3.0891	3.1888	7.8009	8.3227	4.7659	3.6073	8.6553	12.6285	7.7134	2.9462	8.2503	11.7596	10.6445	6.4588	4.1876	7.4609	6.4901	4.6020
640.6250	-2.3610	-0.4870	-1.5977	-2.9049	0.4685	-4.9981	0.1129	-2.2290	-3.3101	4.7393	1.1116	1.4576	3.9784	2.6112	4.0537	3.4843	6.4067	6.6605	4.2001	4.1681	7.0723	10.6615	6.5532	3.1939	6.8884	9.0256	8.3989	5.5136	4.5536	5.6939	5.2600	3.9769
648.4375	-2.4689	0.0719	-1.3956	-4.0975	-0.6417	-1.7823	0.8505	-3.2209	-4.4800	3.5475	1.3368	1.0272	2.0599	0.6550	2.8751	2.8486	4.0866	3.8275	1.9951	2.8281	5.0302	6.9886	3.2723	0.4913	4.8674	5.9606	4.5165	2.1540	1.5920	3.4050	2.4721	1.1228
656.2500	0.0707	1.5658	1.0618	-2.3628	0.9599	-1.9713	3.6317	-1.1082	-2.9637	5.1700	4.4254	2.7232	2.6261	2.1760	3.6127	4.4166	4.1968	3.3511	1.4514	3.4673	4.6312	5.8042	1.1436	-1.0542	4.0694	4.8914	1.9076	-0.7467	-1.2481	2.1058	0.1307	-1.7779
664.0625	0.3082	0.8284	0.6971	-2.8000	0.1983	-0.6493	3.4557	-1.1518	-3.2622	4.5387	4.8409	2.5230	1.8151	1.8345	3.1640	3.4014	2.8932	1.5355	0.2917	1.8013	2.7676	3.2436	-1.3973	-2.6199	0.9767	1.4754	-1.4157	-4.0809	-3.2086	-1.2296	-2.6791	-4.5132
671.8750	1.6423	1.9537	3.1561	-0.5799	1.7762	0.0210	6.6294	1.5100	-1.7680	6.1710	7.8852	5.5246	3.5249	3.8199	3.7485	5.8405	5.2691	2.4375	1.4095	3.2679	4.1506	3.6205	-1.0357	-2.4031	1.3453	1.8407	-1.8395	-4.3772	-3.5731	-1.2744	-2.8397	-4.6070
679.6875	3.7246	5.1098	5.6683	1.7870	4.4419	4.3027	9.2631	3.8266	0.0395	7.2513	9.0276	7.9983	5.0313	5.1290	3.8811	6.8618	6.8811	3.4586	2.0149	3.4641	5.3088	4.3421	-0.3372	-1.8348	1.6039	1.9957	-1.2870	-3.9082	-3.1642	-1.0484	-2.6498	-4.3150
687.5000	1.8697	3.2276	3.9222	0.7828	4.9831	1.6499	7.7337	2.8412	0.9787	6.9939	7.5335	7.3111	5.6190	5.3402	3.4321	6.2819	7.2542	4.7047	2.1060	3.2813	5.6828	5.7469	1.2345	-1.9774	2.5335	3.0706	0.4228	-2.4210	-2.4511	-0.0296	-1.2612	-2.9193
695.3125	0.5366	1.6760	2.4475	-0.2140	4.6197	-0.3423	5.9670	1.7974	1.1470	7.2964	6.0143	6.8423	7.8901	6.0034	3.9396	6.6035	9.1440	8.0774	4.4082	4.3132	7.6775	9.1932	4.8298	-0.6064	4.8270	5.6920	3.7299	0.9159	-0.3543	2.3689	1.1307	-0.9298
703.1250	-0.0987	2.1884	1.7531	-0.9776	5.3273	-0.3661	4.8805	0.8613	1.6604	8.0351	4.1571	6.4034	8.4524	5.9326	3.9506	6.3754	10.3108	10.0622	5.8647	4.0107	8.4412	11.5614	7.0957	0.6026	5.6633	7.4392	6.1830	3.4122	1.2723	3.5850	2.5874	0.8999
710.9375	-0.5714	1.5911	0.7415	-1.2925	4.8257	-2.7438	3.2926	0.5028	0.1186	8.0812	2.4496	6.0272	8.9438	5.8672	4.3122	6.4586	10.8961	11.1193	7.2313	4.4545	9.8972	13.2257	9.0196	2.3615	6.8283	10.0933	8.4383	5.9588	3.5117	5.3656	4.7892	3.4154
718.7500	-2.3146	-1.6412	0.3296	-1.1595	4.7430	-4.1488	1.9623	0.4394	1.0452	7.4096	1.4221	5.5209	8.6887	5.9563	4.6065	5.4724	10.0520	11.0669	7.9578	3.0712	9.4449	13.3120	9.9923	4.3670	6.2540	10.4721	9.3724	7.8332	5.7873	5.3335	5.1633	4.7769
726.5625	-0.7288	-0.1362	2.2308	-0.3415	3.9217	-2.7131	4.3206	1.6700	0.3011	7.0813	2.8343	5.2569	8.2708	6.6255	5.7872	5.3409	9.4372	10.7788	8.4269	3.0824	8.3979	12.7491	10.0817	5.2321	5.7958	9.1359	9.0136	8.4528	6.6032	5.4619	5.7511	4.9293
734.3750	-0.2116	0.5849	1.5262	-1.9481	2.2735	0.0289	3.6616	-0.6926	-2.1437	5.4524	2.2744	2.7203	4.7894	3.0464	4.1888	2.5460	5.5358	6.6231	5.4094	1.5512	3.8126	8.2874	6.2914	2.7436	2.2409	4.5257	5.0455	4.4895	3.6342	2.1649	2.5523	2.0678
742.1875	0.8375	1.8843	3.0203	-1.7142	1.4788	-1.1882	4.1993	-0.7118	-3.6626	4.6814	2.9552	1.8673	3.5656	1.5313	4.2265	1.2779	3.4593	4.1315	4.6899	0.5193	1.0915	5.3695	3.9846	2.5952	-0.5823	0.2325	2.0814	2.4642	2.9680	-0.2657	1.2036	0.9161
750.0000	0.2447	0.9561	2.0833	-2.2617	0.3447	0.2004	1.8452	-1.6243	-3.6421	2.8611	-0.8120	-0.1444	1.2464	-0.5253	2.0147	-2.0490	0.1284	0.4781	1.9269	-3.5023	-3.3632	1.0123	-0.1152	-0.2170	-4.1311	-4.6415	-2.8005	-1.6514	-0.1377	-4.0538	-2.6989	-2.5256
757.8125	3.3530	2.7383	4.9673	1.3570	2.1669	-1.0438	3.7343	1.7554	-1.1983	4.2404	0.6875	2.3291	2.1921	2.0059	2.7218	0.0988	1.8410	0.8475	1.8251	-1.3185	-1.9371	0.4631	-0.8849	-0.4327	-2.6502	-3.8868	-3.9740	-3.2596	-1.1740	-3.3726	-3.2156	-3.7514
765.6250	4.5408	1.9639	6.4006	2.8974	3.6717	1.7058	5.4381	3.5455	-0.3915	4.6439	2.8651	4.4068	1.6783	2.3964	2.0943	1.8372	2.5332	-0.2011	0.5713	-0.1396	-0.5147	-0.6712	-2.6193	-2.2667	-2.4479	-2.6507	-5.0851	-5.5878	-3.3043	-3.9542	-4.5973	-5.6053
773.4375	6.8364	4.1508	9.0116	6.0203	6.5302	1.9544	8.1892	6.5942	1.9609	7.8516	5.6780	7.0461	3.9821	4.8037	4.2439	4.8527	4.9434	1.8599	2.1421	2.4467	1.9673	0.9618	-1.2698	-1.5190	-0.4711	-0.5140	-4.2328	-5.0314	-3.4272	-2.4920	-3.5556	-5.0656
781.2500	7.1812	4.2299	9.2146	6.6465	7.3977	3.9943	9.0285	6.9699	3.3686	8.1719	6.0288	7.8210	4.6864	6.0084	4.6318	5.3480	5.5677	2.8970	2.0472	2.8123	2.8655	1.5545	-0.9173	-2.3921	-0.2380	0.4957	-3.9054	-5.5583	-4.4570	-2.6290	-4.0593	-6.0206
789.0625	7.0771	4.8461	9.2005	6.7812	7.3842	2.4343	9.5764	7.4804	4.2876	9.0659	7.7370	8.7989	6.8351	7.7818	5.5466	6.7707	7.7719	5.4925	3.4152	2.9649	4.6464	4.4619	1.2867	-1.8520	0.2018	2.5954	-1.3459	-3.3035	-3.1734	-1.4442	-2.3912	-4.4720
796.8750	5.0830	3.3525	8.3611	6.2370	6.7254	2.7589	9.1509	7.6998	4.4658	8.9195	7.5429	9.0201	7.7688	8.4736	5.4049	6.8951	8.9774	7.1699	4.4725	3.4251	5.9403	6.9302	3.5036	-0.5597	1.2775	4.4480	1.2661	-0.5649	-1.4057	-0.0063	-0.5665	-2.0570
804.6875	3.6080	2.9412	7.1184	6.5287	7.4220	1.6329	8.0090	7.8617	5.6444	9.4229	7.7520	8.8025	8.5824	9.5444	4.7584	7.3204	11.0077	9.7753	5.7968	4.3761	8.4154	10.8526	6.8544	0.8880	3.4931	7.2470	5.7605	3.5576	1.5517	3.0295	3.1396	1.5695
812.5000	1.8483	1.3388	4.6065	5.2790	6.6789	0.6277	5.8322	6.4189	4.9109	8.7757	6.4822	7.7831	8.8024	9.9668	5.1842	7.1554	11.8484	11.2005	7.2843	5.3046	9.5679	13.8802	9.3636	2.7804	5.1228	9.3703	9.2050	7.1114	4.6391	5.4863	5.8992	4.8366
820.3125	-0.9326	-0.9381	1.3696	2.7808	5.3275	-3.3072	2.4073	3.5705	3.4946	7.7941	2.6563	4.9082	7.2359	7.9879	3.6165	4.9364	9.5937	9.8382	6.9375	4.0788	7.5650	12.8016	9.0991	3.3728	4.7696	8.3655	8.7271	7.5815	5.3823	5.5191	5.8423	5.1692
828.1250	-0.1938	1.7073	1.0529	2.0579	4.3065	-3.6561	1.3390	2.6220	2.0921	6.9799	1.2672	2.9361	6.5127	7.0496	4.4815	2.9825	7.7628	8.6798	7.0430	2.3096	5.9430	11.1943	8.5208	4.2519	3.1562	6.6523	7.6433	7.1209	5.1736	4.2340	5.1908	4.4444
835.9375	-2.4984	-0.6220	-0.7273	-0.2068	1.6820	-4.2805	-0.6638	0.6390	0.4660	4.3966	-0.8371	0.7047	3.7963	4.6148	3.9107	0.6215	4.8412	5.9592	4.9279	0.9261	2.7263	8.4248	6.3540	3.7917	1.2234	4.2066	5.2574	5.0085	4.2895	2.1883	2.7180	2.3679
843.7500	-1.9850	-0.8366	-1.1121	-0.2553	0.8205	-5.4603	-0.9472	0.4419	-0.8304	3.3854	-0.8148	0.8700	2.6606	3.8576	3.7010	0.8669	4.3411	4.8729	4.1314	2.3016	2.4574	6.9186	5.2633	3.9021	2.8864	4.3069	4.0967	4.2722	4.8972	3.0828	3.0722	2.5256
851.5625	-1.7618	-0.5803	-0.4506	0.4627	1.0856	-4.3428	-0.6406	1.1316	-0.3518	2.7416	-0.3924	1.5523	0.8552	3.3184	2.3465	1.2495	3.3854	2.3034	2.1134	2.1098	1.7801	3.8857	2.3009	2.5139	2.3737	3.4093	1.2424	1.7295	3.0696	1.4547	1.1882	0.9017
859.3750	0.0883	-0.5502	3.6093	3.0361	1.2439	-4.6099	2.2924	3.7171	-0.6768	2.2998	1.7711	2.4962	0.5025	3.5540	2.1234	2.8179	3.3454	0.9309	1.1873	3.4906	1.9371	1.6676	0.4715	1.2532	3.2510	2.7085	-1.0394	-1.0235	1.0713	1.0351	-0.1693	-1.4156
867.1875	1.9184	-0.2007	5.7829	4.3761	2.7187	-0.4671	3.9628	4.1349	0.0062	2.0769	2.5672	2.2663	-0.5594	1.6835	0.9113	2.4942	1.5128	-1.0986	-0.9397	3.3415	0.9554	-0.6395	-2.5837	-1.1995	2.6988	1.6823	-3.6831	-4.4580	-2.0867	-0.3525	-2.1976	-3.7506
875.0000	4.2760	2.3210	8.0605	6.9642	5.0864	-1.3982	5.7063	6.7681	1.8716	4.0740	4.2074	4.6794	1.7856	4.7275	2.0754	4.0599	3.9236	1.0692	0.3433	4.2995	2.4598	0.9568	-1.7981	-0.4966	2.8437	2.1863	-3.6231	-4.3802	-1.9201	-0.5629	-2.2186	-3.7291
882.8125	2.7167	0.4887	7.4884	6.8795	5.9275	-0.2979	5.0323	6.9552	3.3625	4.3127	4.1819	5.5917	2.6898	6.0575	1.7979	4.4672	5.2336	2.0606	0.5898	3.8064	2.9813	1.9043	-1.4011	-0.8123	2.0268	2.2389	-3.5244	-4.6801	-2.8396	-1.3925	-3.0968	-4.5904
890.6250	3.9185	0.8146	8.9238	8.6779	7.3382	-2.5510	6.2459	8.5561	4.8850	6.5494	4.9310	6.9628	5.4487	8.5464	4.0360	6.1354	7.9961	5.5479	3.6797	4.1366	5.3191	5.2118	2.1019	1.5618	2.6416	4.3560	-0.2543	-1.4886	-0.5069	0.4660	-0.6493	-2.0018
898.4375	3.0577	-1.8039	7.5759	8.0451	7.6796	-1.9756	4.5430	7.1244	4.1817	6.6072	2.8873	5.5350	5.5381	7.6901	3.9514	4.0287	6.8721	5.8511	4.1873	1.8214	4.3819	5.3262	3.0936	1.3631	0.9001	3.3188	0.1865	-0.9289	-0.5327	-1.0071	-1.5386	-2.2550
906.2500	4.8669	1.2217	7.7611	8.8837	8.8437	-1.7870	4.8264	7.3337	4.8801	7.9757	3.8873	5.3371	6.9212	7.9617	5.6513	4.2979	7.2131	7.4197	5.8801	1.8536	4.7261	7.0772	4.9978	2.1994	0.4538	3.3841	1.8280	1.2385	0.5866	-0.5589	-0.6058	-1.1491
914.0625	4.4978	0.6047	6.6719	7.7862	7.2416	-0.1968	4.2795	7.1304	4.7351	7.6623	3.0930	5.5694	7.3463	8.2534	5.6861	4.3813	7.7178	8.4811	7.0052	1.8964	5.0597	8.3248	6.9202	3.1702	0.6472	3.9037	3.5073	3.4227	2.2430	0.7108	1.0672	0.5799
921.8750	2.5741	-0.4684	4.9334	6.1353	6.0628	-2.6139	2.7156	5.6394	4.0008	6.9374	2.4872	4.3951	6.9361	7.8432	6.3306	3.5223	6.8935	8.0109	7.6546	1.4155	4.2042	8.0806	7.2466	4.2465	0.6348	3.6627	3.5946	4.1109	3.2766	1.1250	1.5450	1.2020
929.6875	0.5910	-1.5107	2.5549	4.3219	4.7269	-2.3628	1.0271	2.6941	1.8148	5.5221	1.4963	2.2747	4.8319	4.7082	6.3776	1.8412	4.4019	5.3150	6.3215	0.7267	2.5640	5.6135	5.0788	3.5402	-0.1570	2.3724	1.6855	2.4902	2.1037	0.2637	0.3159	-0.0723
937.5000	-2.3194	-3.3340	-0.4143	1.2274	1.7946	-4.3218	-1.1463	-0.4248	-1.1947	3.4196	-0.5819	-0.5739	1.0941	1.0055	4.1829	0.0179	1.5461	1.4281	3.1047	-0.3141	0.0930	1.9001	2.0639	1.2985	-1.5380	0.1638	-1.5038	-0.0516	-0.1337	-2.0174	-2.0694	-2.3989
945.3125	-1.8346	-2.6757	-1.1503	1.1947	0.6629	-4.2383	-2.2150	-0.2593	-2.6950	1.7369	-1.1054	-1.9589	-0.6958	-0.0126	3.0017	-1.5182	-0.2788	-0.3072	1.5622	-0.6946	-1.5470	-0.0771	0.5401	0.4457	-2.0496	-0.9261	-3.8341	-1.6226	-0.6633	-3.2614	-3.3832	-3.7338
953.1250	-1.0565	-1.4084	-0.3306	2.9444	2.7228	-3.5954	-1.8746	0.8264	-0.4736	2.6230	-0.3129	-1.7965	0.3522	0.7215	3.1956	-1.0685	-0.2827	0.1955	1.6034	1.1670	-1.1684	-0.1893	0.4844	0.9418	0.0255	0.2159	-3.6330	-1.4270	-0.4064	-1.8305	-2.9843	-3.4394
960.9375	-2.4028	-2.9199	-1.1017	1.5597	1.5192	-4.2783	-2.7565	-0.3380	-1.7658	2.4581	-0.8543	-2.7434	0.6516	0.4628	3.0145	-1.1333	-0.8621	0.3177	1.6759	1.4067	-1.2383	-0.4960	0.2461	0.6320	0.8453	0.2288	-3.7489	-2.2551	-1.0336	-1.4803	-2.8249	-3.6365
968.7500	-4.0388	-4.5685	-1.8799	1.1055	1.9167	-4.4897	-3.5843	-0.9878	-0.8234	2.6997	-1.6852	-3.3280	0.6007	0.1616	1.6279	-1.6576	-1.4447	-0.2098	1.0029	0.4542	-1.9199	-0.9101	-0.8150	-0.6980	-0.2727	-0.2126	-4.2679	-3.2478	-2.2059	-2.3526	-3.3109	-4.1193
976.5625	1.1526	-0.3169	3.6218	6.0045	5.6778	-2.5417	1.2662	3.6504	1.6891	5.7615	1.3166	0.3550	2.9089	2.8761	3.0623	0.8594	0.9519	1.1695	2.3476	2.2890	-0.3095	0.3046	-0.4398	0.4820	0.1670	-0.0122	-3.3183	-2.6705	-1.1427	-1.9524	-2.5958	-3.2433
984.3750	2.9227	-1.8282	5.2499	6.9121	6.8954	-0.0199	2.0735	4.4239	2.4515	5.3474	0.4238	0.6254	1.4162	1.7796	3.1920	-0.1344	0.0507	-0.7548	0.2402	-0.5964	-2.0552	-1.0511	-2.5251	-0.7995	-2.5847	-2.0430	-4.3111	-4.4916	-2.8205	-3.9594	-3.7277	-4.4746
992.1875	4.4203	-0.2527	5.6696	6.5605	6.2416	-2.0823	2.6598	5.1069	2.3790	5.6555	1.4216	1.5224	2.5285	3.2244	3.7276	1.1273	1.5955	1.2258	1.1526	0.2755	-0.3029	0.9266	-0.9165	-0.4745	-1.1989	-0.6024	-2.2490	-3.2951	-2.5311	-1.6799	-1.3005	-2.9769
1000.0000	3.2957	-2.9333	3.7293	3.8196	3.7609	0.3898	2.0010	3.1521	0.6523	3.4103	1.6191	1.1408	1.4391	2.0339	1.5527	1.1302	1.0352	1.4635	0.3604	1.1475	-0.0006	1.4684	-0.3702	-0.7884	-0.9454	-0.3791	-1.5777	-3.2667	-2.6761	-1.5303	-1.4930	-2.7216
1007.8125	3.7761	-2.8709	4.3096	4.5948	3.0565	-2.0567	2.5632	3.6792	0.1463	3.3659	2.7886	1.7282	2.2631	3.4312	2.1679	2.5064	2.7887	3.5861	1.8219	2.4287	1.5902	4.2298	2.0210	0.5468	-0.6072	0.6006	1.0340	-1.0046	-1.0835	-0.3790	0.5939	-0.8932
1015.6250	2.9079	-4.4800	2.8707	3.6890	2.7159	-0.7467	1.2439	2.3494	-0.4776	2.4858	1.8173	0.4865	1.6620	2.3869	2.1692	1.6198	1.8839	3.0286	1.6641	2.2606	1.2717	4.2503	2.2711	0.7257	0.0498	1.1805	1.7276	-0.1971	-0.4963	0.2702	1.0902	-0.4203
1023.4375	2.8116	-5.3475	1.7849	2.4713	1.6365	-2.6028	0.3899	1.1015	-1.7727	1.6667	2.0606	-0.7864	0.9732	1.2876	2.7515	1.2155	1.3402	2.5567	2.4003	2.7191	0.8219	4.2195	2.6022	2.0187	1.3654	1.8309	1.7171	0.7557	0.6935	1.1159	1.5557	0.1709
1031.2500	1.6899	-6.3540	0.4775	0.5509	-0.8731	-2.6225	-1.2656	0.0431	-4.0141	-0.3231	-0.3254	-1.6208	-0.6748	-0.0108	1.6333	-0.4212	-0.1294	1.1709	1.8726	0.9412	-0.4118	2.2801	1.6926	1.1693	-0.1863	1.0711	0.0497	0.1362	0.0671	-0.2779	0.2984	-0.8556
1039.0625	3.1211	-6.7309	1.8998	1.1370	-0.8997	-3.7746	-0.3950	1.0617	-3.3245	0.0404	0.2146	-0.7539	-0.4739	0.8421	2.7739	0.4238	1.0655	1.0362	2.4370	1.5053	0.6148	2.1920	2.0777	2.3238	0.9460	2.3229	0.1796	1.0138	1.3660	0.5214	0.8018	-0.1920
1046.8750	4.7949	-7.0814	1.7505	1.0002	-0.8634	-0.7940	0.0115	0.6265	-3.2615	0.1059	0.3625	-0.1685	-1.0976	0.6018	1.8504	0.8917	1.2593	-0.0113	1.6673	2.5755	1.6835	1.7496	1.2864	1.5884	2.4619	3.3365	-0.1914	0.5087	1.0209	1.3747	0.5401	-0.6125
1054.6875	5.7157	-5.6048	2.8289	2.1863	0.2284	-0.7907	1.2603	1.6006	-2.5905	1.0441	1.3513	0.8278	-0.7614	0.6993	1.8118	1.6519	1.7462	0.3082	1.6201	3.1211	2.2911	1.4890	1.0557	1.2123	2.8966	3.4345	-0.5606	0.4222	0.7461	1.3138	0.2005	-0.7914
1062.5000	8.0856	-6.3160	5.8893	4.7971	2.4221	0.4881	3.2937	3.7427	-1.0670	1.6303	2.8243	2.3817	0.2383	2.2023	1.1743	2.4752	2.5720	1.1355	1.3754	3.5244	2.3020	1.3592	0.8840	1.2284	1.6826	2.5565	-1.2969	0.2243	1.2889	0.0821	-0.4095	-0.7839
1070.3125	9.8638	-6.4986	7.8592	7.5808	5.3459	0.7601	5.1736	6.1670	1.8551	2.6106	4.0282	4.1985	1.5318	5.0409	0.4286	4.3764	4.6600	2.8514	0.8812	4.5431	3.4369	3.2806	1.5435	0.5395	2.2581	3.4454	-0.5375	0.0720	0.8683	0.6696	0.3875	-0.3229
1078.1250	11.8343	-5.5374	9.6408	9.4629	5.9594	1.2775	6.6494	8.2754	3.0857	3.3245	5.7025	5.2679	2.8623	7.5170	2.2839	5.0013	5.4675	4.0709	1.4850	4.4706	3.3258	4.0072	2.0079	-0.0639	1.7784	2.5141	-0.4464	-0.5591	-0.5002	0.2195	0.0722	-1.3032
1085.9375	12.4515	-5.5120	10.4787	10.2111	8.1366	2.1712	7.1436	9.0044	5.0922	4.8540	5.7942	5.5742	3.3980	7.5024	2.0892	4.1576	4.3821	3.5613	2.0634	3.8684	1.5239	2.7437	1.2983	-0.6488	-0.0266	-0.0796	-1.6808	-1.8746	-1.7336	-1.3733	-1.4379	-2.6776
1093.7500	14.0372	-3.9545	11.7854	12.0776	10.3463	1.5703	7.6259	10.2549	6.2573	6.6212	5.4364	5.9049	5.5697	7.8068	4.0143	4.0175	4.3109	4.4458	4.3801	3.3439	1.4908	3.3977	2.4365	0.9403	-0.4070	-0.7639	-0.9971	-0.9659	-0.8288	-0.9283	-0.7241	-1.8624
1101.5625	13.1704	-4.4053	10.7529	10.9563	9.6900	3.0436	6.4283	8.7207	5.6883	5.7877	4.0750	4.3347	4.9773	5.8596	2.9673	2.3867	2.2844	3.3561	3.5807	1.0984	0.0652	1.6344	1.4045	0.7166	-2.4148	-2.2410	-2.1209	-1.5913	-1.1820	-2.8491	-1.7143	-2.6511
1109.3750	13.3403	-3.6361	11.1632	11.4908	9.4795	1.8691	7.3445	9.2965	5.6145	6.6436	6.2987	5.5536	6.8420	7.2268	4.0640	5.1327	4.4634	5.4612	5.6829	3.5821	2.6770	3.3860	3.6273	2.7903	0.0458	0.4995	-0.5588	0.7087	1.1512	-0.4171	0.5741	-0.2473
1117.1875	8.5410	-7.7811	7.5450	7.7698	6.7601	0.3008	5.0889	6.2074	3.7457	4.7637	4.7923	4.6480	5.2200	4.7628	4.3990	4.7937	3.8418	4.4120	4.8136	3.2194	3.2505	3.2483	3.6761	1.8845	0.8271	1.6658	-0.3282	1.0147	0.6382	-0.2079	0.3473	-0.3606
1125.0000	10.1340	-4.0438	8.8822	7.4998	6.1036	-0.1608	6.8264	7.3580	2.6492	5.5199	6.3303	5.5764	6.0986	5.2442	5.6502	5.6834	5.7827	6.1091	6.3629	4.9511	5.2789	5.7636	5.6480	3.2052	3.1831	4.4487	2.1211	3.6208	2.6197	2.2361	1.9867	1.2345
1132.8125	10.0104	-5.2157	9.3701	8.5102	7.2688	1.6525	6.5839	8.5331	4.3275	6.1941	5.0546	6.4327	7.2365	6.5791	5.5137	5.0859	6.4217	7.4469	6.8826	3.3287	4.9894	6.7890	6.8083	3.5320	2.0502	5.0215	3.1704	4.7414	3.5512	1.5793	1.8243	1.8377
1140.6250	7.5743	-6.5092	8.5307	7.7355	6.0966	-2.5076	6.4226	8.2802	4.3789	5.9212	5.4982	7.5883	7.8687	7.1794	6.0423	6.5451	7.7536	8.1745	7.0408	4.7096	6.4682	7.7537	7.2192	3.7426	4.0404	6.7506	4.3847	4.9749	3.8891	3.4662	3.3206	2.4053
1148.4375	4.9972	-7.3935	5.2831	4.4488	3.9339	-0.6345	5.2183	5.4838	2.5433	4.4475	5.6569	6.9344	6.2428	5.0738	4.2853	6.2740	6.7991	6.3614	5.7156	5.7319	6.4182	6.8677	6.1501	3.2460	4.9828	7.4618	4.6522	4.1719	3.0973	3.6441	3.1067	2.0408
1156.2500	3.6915	-7.3952	3.0059	2.6787	2.7037	-2.8434	3.9531	3.6200	1.2378	4.6533	5.1376	5.3454	6.1280	4.5320	4.4149	5.3411	6.2292	6.3473	6.2973	4.5842	5.4588	6.2571	6.0798	4.0549	3.3979	6.6990	4.2017	4.0806	3.6492	2.6826	3.1615	2.4735
1164.0625	2.8354	-6.6902	2.2678	1.2500	0.5388	-1.9391	2.9826	2.1339	-1.3089	3.1408	4.1933	3.9306	4.5476	3.4288	4.2718	4.7369	5.1884	4.9782	5.3151	4.2173	5.0630	5.3705	4.8745	3.4387	3.8965	6.3273	3.4364	2.8499	2.6895	3.1781	2.4868	1.1345
1171.8750	4.3225	-6.0768	4.2024	2.7903	1.2031	-1.6924	4.5722	3.3077	-1.2077	2.9734	6.4924	3.9431	3.0041	3.9032	4.1489	5.6721	5.3699	4.5481	4.4731	5.5294	5.1260	5.5382	4.2582	3.3225	4.1196	5.7479	3.4591	2.6113	1.9567	3.2768	2.4720	1.0310
1179.6875	5.6527	-6.8443	5.9168	5.6021	2.9805	-0.0281	5.3151	5.3400	0.4778	2.9819	6.2229	4.2322	1.8173	5.3836	3.1795	4.9551	4.8964	3.5813	3.0842	4.7725	4.1595	4.5889	2.6803	2.0151	2.6579	4.0800	1.8163	0.8279	0.5007	1.7963	1.4712	-0.1582
1187.5000	7.9782	-6.2094	9.3398	9.1483	6.3817	0.9238	7.6706	8.5297	4.7691	4.0156	7.1484	6.5212	3.0100	7.6613	2.6123	6.3066	6.0737	4.4091	2.8961	4.8097	4.6429	5.1048	2.8202	1.3596	2.3540	3.8825	1.3943	-0.1706	-0.4264	1.0578	0.6090	-1.1387
1195.3125	9.2565	-5.0958	9.8590	8.9262	6.0957	2.5297	8.5359	8.1973	4.2286	3.9093	7.3112	6.4582	3.9379	6.6302	2.5202	5.9382	4.7601	3.9480	2.7442	4.6100	3.8336	4.2110	2.5170	0.6230	1.5106	2.5640	0.1271	-1.3364	-1.4616	-0.0881	-0.6085	-2.4862
1203.1250	7.9413	-6.1586	7.3973	6.5008	5.4854	1.1076	6.0214	5.1918	2.5680	4.0143	5.5420	3.4899	3.6537	2.8722	2.5379	4.1758	1.7368	2.6008	2.5892	4.1643	1.9634	2.0642	1.5280	0.0916	1.6911	1.7182	-1.3186	-1.9696	-1.9835	-0.2047	-1.1360	-3.2128
1210.9375	7.5719	-5.6311	6.3295	5.2983	4.2644	-0.2039	4.9228	3.6211	0.3969	3.4555	5.2756	2.4061	3.7042	1.3961	2.9584	3.6198	0.7899	2.2621	3.8214	3.2040	1.4045	1.2596	2.2577	2.2019	1.3211	1.4759	-1.1982	-0.3404	0.2283	-0.4062	-0.8202	-1.6519
1218.7500	5.7522	-7.1227	4.7737	4.4017	3.1668	0.3653	4.4937	3.1317	0.2434	2.9637	4.9233	2.3501	2.6220	1.2125	3.1523	3.2981	0.4596	1.5459	3.4376	2.7100	0.9794	0.3826	1.9470	2.4999	0.5558	0.9423	-1.9608	0.1855	1.1225	-1.7302	-1.8700	-1.5623
1226.5625	5.7439	-7.1804	6.0078	5.6005	3.8359	-0.9135	6.2560	5.5025	1.5805	3.5973	7.0195	5.2372	4.4556	3.8296	4.8004	5.8340	3.5824	4.1206	4.8952	5.2307	3.8920	2.6746	3.8741	3.3375	3.1095	3.7122	-0.3576	2.2216	2.6925	0.8741	0.5727	0.3647
1234.3750	3.7145	-7.3224	5.0825	4.5370	3.9252	-0.3934	5.0210	4.6044	2.4414	3.9464	5.6919	5.0376	4.8150	3.4568	3.7912	4.8845	3.8343	4.5746	4.8427	3.7742	3.3454	2.8370	4.6051	3.2399	2.7654	4.0829	0.5166	3.4362	3.8458	1.2727	1.0365	1.4487
1242.1875	4.4448	-5.9991	5.8652	5.9477	4.4684	-1.6685	5.1963	5.2894	2.3999	5.0595	5.7557	4.8140	6.0117	4.3569	4.5297	4.4070	3.8555	5.7719	5.9093	3.8546	3.1355	3.3970	5.5318	4.1917	2.9995	4.4295	1.7916	4.2720	4.9690	2.0109	2.2310	2.5317
1250.0000	2.4593	-8.3559	3.7191	4.1692	2.9889	-1.1527	3.1402	4.0781	1.4831	3.2094	4.2474	3.3087	3.6348	2.7404	3.0666	2.0812	1.4994	3.7030	3.6267	2.8239	0.8747	1.4549	3.0523	1.8963	1.9386	2.8936	0.2661	1.5572	1.9964	1.1059	0.8807	0.2738
1257.8125	3.5696	-5.6271	3.4682	3.6615	1.7477	-2.4978	3.2680	3.6892	0.1814	3.3869	4.4971	3.0356	3.2126	2.8965	3.7745	1.8113	1.8511	3.2952	3.3050	2.1262	0.2528	1.0636	2.7736	1.7242	0.5909	1.4817	-0.6813	1.1953	1.2635	0.2391	0.1975	-0.2787
1265.6250	3.0271	-5.9344	2.2200	2.7973	0.8595	1.0631	2.8785	2.9341	-0.4152	2.3540	4.1334	2.4960	1.6818	2.3309	3.2413	0.9466	1.0754	1.8852	2.4636	1.8322	-0.7418	-0.0065	1.4172	0.8517	-0.4691	-0.0344	-2.0175	-0.3824	0.0557	-1.1750	-0.7909	-1.2419
1273.4375	2.7216	-5.2755	2.7994	3.8013	1.0357	-0.9614	2.9653	4.2328	1.3496	2.7841	5.0497	3.3010	2.2375	4.4690	3.8693	2.0313	2.7665	2.9307	2.9920	2.2493	0.5113	1.3525	1.1506	0.7698	-0.2248	0.2077	-1.4570	-0.8887	-0.5839	-0.6106	-0.5842	-1.4662
1281.2500	1.3838	-5.9360	2.7827	4.1538	1.2908	0.3898	3.2273	4.4745	2.3197	2.5870	5.3439	3.7154	2.5237	5.2831	3.5220	2.7611	3.5994	2.9540	2.4668	1.6924	1.2334	1.7696	0.5255	-0.0457	-1.3835	0.0345	-1.6920	-1.8785	-1.9097	-1.8511	-1.8130	-3.0147
1289.0625	0.4834	-5.1599	1.8646	2.8261	1.1230	-1.1633	2.7598	2.9340	1.4583	2.7460	5.2959	2.5685	2.8631	3.5513	3.4176	2.8946	2.4621	2.6783	2.7902	2.3163	0.9599	1.5156	0.8825	0.3343	-0.6415	0.0944	-1.5230	-1.5524	-1.2964	-1.1628	-1.4259	-2.6114
1296.8750	-0.9378	-5.5106	-0.8383	0.1331	-0.9772	-1.3960	0.1667	0.3085	-1.1327	1.4632	2.7706	-0.1369	2.5676	0.7287	3.1964	0.3544	-0.3932	1.8976	2.5031	0.0975	-0.8993	0.2320	0.8435	0.1867	-2.3317	-2.1354	-2.3938	-1.7522	-1.1128	-3.1481	-2.9375	-3.5582
1304.6875	-0.7684	-4.7242	0.3341	1.1150	-0.3442	-1.3317	1.6338	1.4107	-0.5036	2.3683	3.7275	0.6594	3.3728	1.6289	4.4789	1.1672	0.2362	3.1004	3.8440	0.7014	0.0664	1.8442	2.6119	1.8432	-1.6323	-0.8584	-0.9061	0.1851	0.7127	-2.1661	-1.5317	-1.7780
1312.5000	1.1245	-1.8431	1.6246	2.3873	0.6109	0.5998	2.7610	2.5452	-0.7404	2.4294	4.5333	1.7201	2.9161	2.4759	3.9516	2.5003	1.3387	2.7698	3.7681	1.9743	2.2183	2.9471	2.6135	1.5002	0.3049	1.6338	0.4349	0.5997	0.9142	-0.1310	0.0543	-0.7975
1320.3125	0.7477	-2.9017	1.2839	3.0329	2.1556	-0.6877	2.5335	3.3918	1.1547	2.6457	5.1568	3.4492	3.5880	4.0629	3.5734	4.4046	3.8275	4.1681	3.8737	3.6649	5.0549	5.2539	3.8617	1.5193	3.3888	5.3530	2.9814	2.7532	2.0793	2.1335	1.7244	0.7293
1328.1250	0.5244	-4.4640	1.9069	3.4304	2.1209	-1.7062	3.3478	5.2486	2.5286	2.8985	6.2426	6.3154	5.9766	6.8095	4.3940	7.0049	7.6904	7.4244	5.4917	5.3344	8.6638	8.8953	6.9124	2.8035	5.2863	8.6064	6.1756	5.4758	3.8922	4.2593	3.9972	3.0615
1335.9375	-0.8661	-4.5043	0.7711	2.6604	1.9967	-2.4566	2.9270	4.2879	3.1206	3.0008	6.3133	7.0210	6.0120	6.2413	3.2533	8.1158	8.6894	7.8519	5.3717	5.7844	9.5141	9.7220	7.4880	2.5925	5.6558	9.9943	7.1723	6.1918	3.5064	4.7749	4.7199	3.3901
1343.7500	-0.1936	-4.1527	0.8854	2.5994	1.3530	-2.8094	3.1358	3.7221	1.6963	2.4672	5.3182	5.7674	5.2292	5.3186	3.1505	7.1906	7.0613	7.0720	5.3459	5.6273	7.8569	8.5710	7.0540	3.0996	5.4473	8.8122	6.9487	6.2879	4.2105	5.1714	5.3481	3.9793
1351.5625	0.4173	-4.2527	1.4398	2.7059	1.0837	-0.2445	2.7832	3.6578	1.1038	1.5510	4.0417	3.8399	3.0308	3.7650	2.5141	3.8909	3.9158	4.5625	3.4290	3.1739	3.7631	5.2604	4.6098	1.5576	2.6364	5.0375	4.0185	3.9341	2.2132	2.5211	2.7659	2.0667
1359.3750	1.9069	-1.8795	3.5258	4.5223	2.1939	-1.2431	4.2832	5.3046	1.3248	2.5121	5.6453	4.9333	3.2558	4.5678	3.6543	4.0966	4.3045	4.3714	4.0229	3.5321	3.4903	4.5905	4.1607	2.4112	2.0130	3.9421	3.1687	3.4226	2.4690	2.3252	3.0856	1.9837
1367.1875	-0.7378	-4.9101	1.2306	2.2375	0.6408	-0.9377	1.6266	2.2783	-0.0323	-0.0683	3.1467	2.3284	-0.4628	1.0113	-0.1528	1.3044	0.3009	-0.2792	0.2315	0.3761	-0.4166	-0.4019	-0.3185	-0.1683	-1.5971	-0.0032	-1.2426	-1.2383	-0.7742	-1.5575	-0.5978	-1.3758
1375.0000	0.1417	-2.7073	2.1670	3.9160	1.7250	-2.2605	2.4269	3.6801	1.8184	1.3102	4.0453	2.7386	0.8782	2.4623	0.9063	2.2376	0.8821	0.3726	0.7705	1.0587	0.1854	-0.9361	-0.3636	-0.4201	-1.1125	-0.5661	-2.4695	-2.0125	-1.4442	-1.3770	-0.8226	-2.4939
1382.8125	1.0110	-2.8726	3.6718	5.7590	4.2614	0.3890	3.8040	5.5905	4.8664	3.3541	4.4883	3.8445	3.6932	4.2457	3.5203	3.2120	2.5082	2.7322	2.7290	1.9317	1.6151	0.6023	1.5628	0.5266	0.0301	0.5086	-1.1812	-0.3873	-0.3037	-0.1969	-0.2250	-1.7094
1390.6250	2.8410	-1.5550	5.1919	6.5979	5.1213	0.1393	4.8021	6.0435	5.0471	4.7449	5.9733	3.9141	5.6506	4.4625	4.2742	4.2738	3.4182	4.3441	4.6196	3.4580	2.8431	2.3163	3.5072	1.9179	1.3415	1.9054	0.3401	1.5162	1.5056	0.9344	0.9859	-0.0958
1398.4375	1.5181	-2.6486	3.3288	4.8944	4.0533	2.0267	3.0954	4.1275	3.1918	3.3102	4.6132	2.1844	3.7241	2.4636	3.1202	2.1755	1.8099	2.8203	3.3241	1.7283	1.5261	0.9948	2.3077	1.1011	-0.4606	0.4236	-1.0630	0.4569	0.4045	-0.7086	-0.6974	-1.1706
1406.2500	-0.5773	-2.7294	1.8908	3.5129	2.6035	-0.9340	2.0271	2.4202	1.2647	1.8372	3.5827	1.1165	2.0439	0.6790	2.4840	1.8880	0.5595	1.2977	2.0156	1.8139	0.7795	0.2162	1.2853	0.3756	-0.0977	0.2751	-1.6792	-0.3420	-0.3315	-1.1468	-1.4255	-2.2590
1414.0625	-1.8211	-4.8288	1.2451	2.2809	1.5164	0.4634	1.5710	1.3130	0.1175	0.2898	3.5440	1.1374	0.2927	-0.4052	0.4935	2.4663	0.0926	-0.3330	0.4283	2.8166	1.4077	0.1084	0.2264	-0.8563	0.5884	1.2779	-1.3231	-1.1029	-0.8985	-0.8242	-1.3652	-2.4301
1421.8750	-2.1691	-4.6801	1.6225	2.2302	1.5217	-1.9883	1.8750	1.6698	0.3012	-0.0338	4.0649	2.0336	0.1460	0.4420	0.7432	3.3206	1.4055	0.1849	0.5061	3.1924	2.6976	1.5663	0.6943	-0.5905	1.4374	2.8811	0.0584	-0.2622	-0.2366	0.2781	-0.1583	-1.1286
1429.6875	-0.8846	-4.2091	2.1906	3.2146	1.8274	-1.0315	2.2005	3.2777	1.0218	0.4471	4.1291	3.1606	2.0904	2.4112	1.8187	4.1943	3.0416	2.9776	2.0186	4.0975	4.1094	3.8656	3.2224	0.7002	2.6251	4.5672	2.4031	1.9758	1.3031	1.9053	1.3788	0.1568
1437.5000	0.5090	-6.4083	2.7803	4.7741	3.3126	-1.5910	2.5049	5.2211	3.3007	2.2229	4.2030	4.2061	4.7228	4.9046	1.8319	4.1919	4.8603	5.9017	4.4646	3.5817	4.6329	6.3598	6.3626	2.2574	2.0600	4.6552	4.5031	4.5146	3.0961	2.1009	2.6670	2.0454
1445.3125	2.0687	-7.8046	2.6712	4.1882	2.7029	-1.4985	2.0415	4.3848	1.9438	1.5310	2.9415	3.1356	4.4878	4.3485	1.4380	2.3686	4.0840	5.7565	4.5990	1.0871	2.8739	6.0734	6.0426	2.0343	-0.9610	1.7903	3.3560	4.6811	2.9626	-0.3786	1.5472	1.3876
1453.1250	4.4229	-8.2593	3.2274	4.3700	3.5647	-0.2782	2.9324	3.9609	2.8196	2.0525	3.3949	3.2485	3.5162	4.0268	2.1438	2.8140	4.1564	5.3037	4.3147	1.9540	2.7332	6.1573	5.8938	2.6138	-0.4376	1.7569	3.5632	4.8390	3.3008	-0.1551	1.4301	1.4749
1460.9375	7.0513	-7.1499	5.2075	6.0493	4.6835	-0.6856	4.2076	4.9467	2.9597	3.2486	3.7987	3.3073	3.3325	4.2229	3.6487	2.1938	3.3066	4.5051	4.3218	0.5891	1.4390	4.5710	4.6352	2.6907	-1.7817	0.2728	2.2419	3.1949	2.3396	-1.4119	0.2907	0.1484
1468.7500	7.0362	-7.5201	4.2117	5.3827	4.5621	0.6931	3.3083	4.0090	1.9511	1.9240	3.1446	1.3945	0.9402	1.8727	2.7857	0.5343	0.6962	1.3741	2.1544	-1.0528	-1.1863	1.1861	2.0272	1.3275	-3.4471	-2.0057	-0.9743	1.0549	0.9135	-3.5884	-2.0071	-1.7909
1476.5625	7.2952	-6.1372	3.6760	4.6316	3.4316	-0.4656	3.5496	3.8140	0.6346	1.9667	5.3358	2.0661	1.5297	1.6553	3.1844	2.4939	1.1528	1.3572	2.8743	0.9409	-0.2657	1.2269	2.2665	1.6185	-2.0259	-1.1396	-1.0961	1.7198	1.9089	-2.2216	-1.0303	-1.1560
1484.3750	6.2356	-6.7588	4.1827	4.0941	3.3973	1.0219	4.4033	3.4425	1.2203	2.1900	5.7035	2.9715	1.7287	1.1431	1.6522	3.0446	0.9591	0.2956	1.6526	0.8851	-0.0796	-0.1169	0.6623	-0.2124	-2.1226	-1.1921	-2.5028	-0.4067	-0.2967	-2.8941	-2.1078	-2.8893
1492.1875	7.5515	-4.4072	6.2035	5.7927	4.8962	0.2621	6.4162	5.1489	1.7605	3.1394	7.1011	4.5941	3.0499	2.9906	2.8285	4.9573	3.2267	1.6214	2.3949	3.5601	2.5301	1.1024	1.2655	0.5369	0.6110	1.4482	-1.8610	-0.1144	0.2566	-0.8620	-1.0106	-2.1171
1500.0000	5.4945	-6.0508	3.2985	4.5324	4.3448	1.3611	4.0042	3.3153	1.0668	2.2458	6.0762	3.0454	0.9337	1.1488	1.7354	3.5317	1.6443	-0.3118	1.0050	2.8014	1.9093	-0.2659	-0.2457	-0.4216	-0.1136	1.4990	-2.6892	-1.6536	-0.5966	-1.5834	-1.8396	-2.9128
1507.8125	4.4850	-5.1517	2.8091	4.0611	2.8088	-0.9518	3.8388	3.0084	0.2240	2.0033	6.3279	2.9884	0.7507	1.0853	3.7064	3.9126	2.3159	-0.3228	1.3143	3.0463	2.5371	0.5552	0.1318	-0.0504	-0.1570	1.7198	-1.6996	-0.8266	-0.4211	-1.0937	-0.9845	-2.2110
1515.6250	1.6480	-6.1553	-0.0436	1.1092	0.7511	-0.9662	1.1396	1.0010	-1.4073	0.5109	3.6555	2.1809	-0.2053	-0.1069	2.2938	2.5401	1.9417	-0.5492	0.6213	1.5596	2.4391	0.7251	0.1183	-0.7881	-0.6908	2.0034	-1.1541	-0.6723	-0.9230	-1.5836	-1.6313	-2.5404
1523.4375	1.8003	-4.1051	0.1438	1.2830	1.2749	-2.6111	1.3548	1.8484	-0.9378	1.6308	4.2769	3.3398	1.6536	1.8212	3.1523	3.6230	4.1153	2.1970	2.5051	2.6333	4.2009	3.4421	2.6269	0.7494	1.2442	4.2280	1.7467	1.9857	1.1456	0.4994	0.7964	-0.4218
1531.2500	-0.2919	-5.0206	-1.6168	-0.5498	-0.7557	-2.3134	-0.0766	0.6110	-1.7164	0.9906	1.8558	2.2229	2.3167	1.5562	3.4971	1.9420	3.3658	3.0256	3.1455	0.5957	3.1386	4.1197	3.8437	1.0912	-0.1158	3.1423	2.2403	3.2375	1.5886	-0.3054	0.6829	0.0551
1539.0625	-0.9172	-5.1424	-1.5252	-0.1330	-0.8478	-4.3793	0.1329	1.3915	-1.0773	2.2082	1.6732	2.5677	4.1980	3.0506	3.7700	2.8722	4.7501	5.7593	5.4121	1.4483	4.1974	6.5868	7.1008	2.7059	1.4515	4.6433	4.7882	6.2724	4.2266	1.8032	2.9070	2.5880
1546.8750	-1.2613	-5.6514	-0.5525	0.5296	-0.1913	-3.4419	0.6607	2.1662	-1.5011	1.6986	1.9865	3.0716	3.7171	3.3386	3.0558	2.9498	4.5892	5.0271	4.5985	2.0084	4.3853	6.7481	6.6847	1.9121	2.4873	4.7679	4.8084	5.7035	3.5276	2.2803	2.7706	1.9371
1554.6875	-0.9404	-4.9358	0.2252	2.3849	2.0981	-5.0328	0.0757	2.9533	0.7014	2.8692	1.2983	2.5748	3.9897	3.5070	2.4014	1.9071	4.1459	4.2850	3.8577	0.4427	3.0351	5.8089	5.3437	1.2092	0.3752	2.8974	3.2871	3.8225	1.7081	-0.2386	0.5690	-0.1213
1562.5000	0.8108	-3.1641	1.9803	3.9095	3.7003	-3.9020	1.5136	4.3630	2.1854	4.4243	1.8068	4.1400	5.7762	5.0512	3.6757	2.5938	5.0933	5.2027	4.6715	0.5549	2.9192	6.3060	5.5167	1.4852	-0.4305	2.0412	2.6343	3.1495	1.3267	-1.5428	-0.5490	-0.9618
1570.3125	0.6731	-4.6834	1.9415	3.5429	3.3898	-3.7585	1.9100	4.1698	1.4469	3.8015	2.6874	3.7138	4.4180	4.2047	3.5146	2.3899	3.9596	3.3038	3.5406	0.2042	1.2028	4.2161	3.6996	0.5494	-1.8443	-0.1456	0.0559	1.2069	0.0459	-2.8390	-2.1351	-2.3232
1578.1250	1.7926	-4.0547	2.4355	4.7764	4.4207	-3.6190	2.2066	4.4463	1.9883	4.2263	3.5621	2.9622	4.3199	4.3758	3.4475	2.3491	3.0700	2.7742	3.2468	0.2087	0.4067	3.1405	2.8061	0.3819	-2.4807	-1.0424	-1.2277	0.8722	-0.0441	-3.2638	-2.3137	-2.5413
1585.9375	2.0623	-2.3252	1.9541	4.9525	5.6147	-1.7576	2.0559	4.0354	2.8960	4.4356	3.3688	2.6653	3.2407	3.8809	2.5037	2.8072	2.7061	2.0170	2.3047	0.7872	0.4039	2.4566	1.8240	-0.5956	-1.9182	-0.8169	-1.8111	0.4507	-0.1950	-3.1900	-2.7060	-2.6708
1593.7500	3.8780	-0.7724	4.0768	6.3781	6.3700	-0.5099	4.5411	5.6908	2.3334	4.7927	6.4437	5.4329	3.5585	5.2543	3.2922	5.7224	5.0811	3.0885	3.2415	4.0410	3.3620	3.7842	2.7701	0.6361	1.1934	1.9293	-0.3276	1.4015	1.0710	-0.3703	-0.5498	-0.9147
1601.5625	2.4002	-2.4019	4.9346	5.8994	6.1192	0.5011	5.8881	6.3377	2.2831	3.1788	7.1059	7.2137	2.7198	5.0613	3.0603	6.7110	5.5758	3.0501	2.3556	4.7563	4.4281	3.3829	2.1931	-0.0638	2.0075	3.2790	-0.3190	0.7587	0.2241	-0.2185	-0.8787	-1.6773
1609.3750	3.0605	-0.6508	6.2068	5.8747	5.0333	-1.0125	6.3899	7.2810	1.4290	2.6443	7.5900	8.0132	3.6550	5.6514	3.9181	6.7037	6.3988	4.4121	3.6704	4.0432	5.0577	4.1259	3.7166	1.6621	1.3889	3.9679	0.6275	2.0629	1.9288	-0.0535	-0.2871	-0.8986
1617.1875	-0.3838	-3.0565	2.4313	2.0125	2.8458	-0.9738	2.6877	3.1619	-0.5131	1.1348	4.0569	3.8888	2.6139	2.9590	1.6895	2.9325	3.6908	3.3621	3.0610	1.2703	2.7078	2.9489	3.4567	1.1738	-0.2427	2.1467	0.0704	1.5790	1.7484	-1.2460	-0.9850	-1.3213
1625.0000	-0.3870	-1.9689	1.3137	0.7025	1.5870	-3.1672	1.2572	1.5558	-1.8602	1.1663	2.8613	1.5442	3.2970	2.8683	2.8381	2.0139	3.1212	4.2725	3.7044	1.8053	2.4767	3.7577	4.0117	1.5087	0.3566	1.8625	0.7037	1.8481	1.4757	-0.3121	-0.1435	-1.0075
1632.8125	-1.0784	-3.8235	0.8679	0.1036	0.9311	-1.0896	0.7247	1.1277	-2.1106	0.8870	2.3405	1.0037	2.7314	1.7966	1.5480	0.7799	2.3479	3.5214	3.0443	0.4169	0.9817	3.0850	3.5577	1.0502	-0.8535	0.7794	0.7006	1.6204	1.1362	-1.2278	-0.4303	-1.1032
1640.6250	-1.7413	-3.9228	0.0385	-0.1724	0.2021	-4.2774	0.3003	0.9880	-2.4147	0.6731	2.0037	0.9532	2.9781	1.5463	1.3921	0.2485	2.0477	3.2205	2.9268	0.0189	0.2117	2.6003	3.5097	1.2435	-1.1299	-0.0582	0.2037	1.7785	1.5798	-1.5247	-0.7831	-0.8406
1648.4375	-4.0352	-4.8530	-1.5206	-1.2159	-0.0216	-4.2114	-0.9631	0.4538	-2.1880	0.3287	-0.0248	1.0563	2.8134	1.4503	1.4739	-0.8461	1.9063	3.5499	2.7354	-1.4222	0.3353	2.3864	3.6048	0.8690	-2.3489	-0.4448	-0.0445	1.8978	1.2242	-2.5757	-1.4577	-1.1486
1656.2500	-5.5132	-6.1813	-1.8579	-1.1658	-0.5719	-6.8029	-1.2708	0.2970	-1.9841	0.5287	-0.2739	1.9065	4.3120	2.1470	1.1835	0.3080	3.7201	5.1324	4.2474	-0.8200	2.0089	4.4220	5.6504	2.7062	-0.6587	1.2228	2.1353	4.7617	3.4983	-0.7123	0.9945	1.1043
1664.0625	-6.6773	-7.8900	-4.3773	-3.1497	-2.2792	-7.1956	-3.8122	-1.9510	-3.9438	-1.4376	-2.3014	-0.1363	2.6207	-0.6970	0.6428	-0.6215	1.5060	2.7024	3.2230	-0.5399	0.6906	2.5330	4.2602	2.1806	0.1598	0.8655	1.2272	3.9785	3.4046	-0.2727	0.8063	0.8742
1671.8750	-4.4636	-5.4190	-3.1028	-1.9421	-1.1420	-6.6266	-2.5616	-1.2204	-3.9683	-1.0686	-1.1526	-0.0599	1.2897	-1.2476	0.4646	0.0032	0.8672	1.1244	2.5286	0.1431	0.0672	0.9260	3.1024	1.5766	-0.3417	0.2668	-0.1992	2.9457	2.6584	-1.2155	0.0356	0.3916
1679.6875	-2.1828	-3.8767	-0.6140	-0.5386	-1.0153	-3.5058	-0.5406	0.2501	-4.0054	-1.1815	0.8228	0.9623	-0.0430	-1.2114	-0.8398	0.8449	0.1737	-0.3386	1.1729	0.5332	-0.2139	-0.2567	1.6556	0.2573	-1.0180	-0.4909	-1.5679	1.4637	1.2016	-2.0708	-0.9250	-0.8435
1687.5000	-0.2408	-3.5559	2.4093	1.7946	0.7251	-2.6956	2.4622	2.5163	-1.5679	-0.4876	3.2490	2.7664	0.2293	0.2915	-0.9254	2.8420	1.4511	-0.1134	0.7964	2.1383	0.7346	0.2160	1.4632	-0.3959	0.1985	0.3287	-1.4944	0.9308	0.6373	-1.2368	-0.8981	-1.3795
1695.3125	2.0976	-2.1254	4.7761	4.4457	2.1757	-0.5122	4.4738	5.1802	0.0101	-0.3534	5.4224	3.9995	1.3921	3.4255	0.3966	4.3033	3.6231	2.1431	1.9475	3.3276	2.4328	2.4289	2.9942	0.4160	0.0741	0.6581	-0.0263	2.6989	1.8224	-0.9592	-0.0960	-0.4320
1703.1250	1.4871	-3.4268	4.0120	3.9864	1.7978	0.0830	3.6127	4.4755	0.1851	0.0000	5.5865	3.3137	1.6139	4.1342	0.5852	4.5395	3.8355	3.3486	2.5404	3.6201	3.0588	4.0953	4.0673	1.2101	1.0034	1.7314	1.6136	3.9226	2.7697	0.0895	1.2861	0.7694
1710.9375	2.2630	-2.2532	4.2370	3.8819	0.5756	0.4931	4.8883	4.7120	-0.6828	0.7063	7.4455	4.4871	3.1654	5.2289	1.7480	6.7213	5.7269	5.2639	4.5705	5.9660	5.5263	6.9721	6.5121	2.8001	4.1224	4.8963	4.7254	5.8718	4.8132	3.2246	3.9865	3.0546
1718.7500	1.8127	-3.0995	5.0501	4.4551	0.8511	2.2531	6.3049	5.9280	0.5405	0.7959	9.4746	6.8902	3.1294	6.5332	1.2668	8.4569	7.7044	6.0163	4.4441	7.0319	7.4763	8.7304	7.4364	2.6490	5.3195	6.9607	7.0510	6.6335	5.0236	4.6390	5.6450	4.5497
1726.5625	2.1743	-4.4304	6.6512	6.4926	3.3941	0.8768	6.9692	7.7845	2.0726	2.0820	10.0459	7.9029	4.3399	8.2602	1.9398	8.7782	8.7502	6.7143	4.0963	6.7259	8.2121	9.0183	6.9615	1.7160	4.8238	6.7175	6.8917	5.4202	3.6619	4.5893	5.4924	3.5425
1734.3750	1.8337	-5.5034	4.8875	5.4213	4.1374	2.0154	5.1819	5.8393	2.8150	2.3184	7.7606	5.5169	3.8659	6.3321	0.6784	6.0867	6.3523	5.3655	2.6290	3.6121	5.5902	6.9275	5.0584	0.1543	2.2552	4.4538	4.6942	3.4522	1.7750	1.8429	2.8303	1.2486
1742.1875	5.5966	-1.4600	7.3105	7.1403	5.0525	1.2191	7.3726	7.4016	3.3336	3.8193	8.9935	6.8297	6.2525	7.2153	2.3803	7.0578	8.1974	7.2118	4.7601	4.4078	6.7904	7.6825	6.6183	1.8700	3.3572	5.6088	5.3772	5.2576	3.3992	2.9205	3.9672	2.8364
1750.0000	4.8993	-4.5393	7.4849	7.1350	5.5681	3.0901	7.4127	7.3157	3.4481	3.8643	7.6266	7.4437	6.4539	5.8715	2.6229	6.3766	7.7805	6.3534	4.8779	3.4640	6.7024	6.2227	6.2778	1.3194	2.8985	5.3018	4.1064	4.4599	2.8186	2.1927	2.8931	1.8286
1757.8125	4.8480	-6.4495	7.6860	7.3411	5.1259	0.2602	7.5676	7.6126	3.7428	4.6533	7.1299	8.4650	8.3178	6.4527	3.4433	7.0816	9.0068	7.4764	6.5958	3.6066	7.5983	7.0054	7.8695	3.0051	3.2347	5.8144	4.2400	5.5581	4.4983	2.9024	3.5796	2.8660
1765.6250	4.9890	-7.8614	6.0032	6.3783	5.4281	1.2505	5.6891	6.1962	3.6117	4.4022	5.1151	7.0821	8.1070	5.0736	3.0401	4.9286	7.2417	6.7946	6.1605	1.7057	5.0886	5.1760	6.8783	1.9024	0.8350	3.0400	1.6328	3.6211	2.5800	-0.2367	0.4194	0.2632
1773.4375	6.2574	-7.6211	5.8430	5.8591	5.8412	-0.9147	5.3535	5.3604	2.6074	5.6147	4.8360	6.4232	8.0065	3.6334	4.7418	3.8893	6.0501	6.4860	6.7854	0.8834	3.6493	4.1332	6.8409	2.4015	-1.3440	0.8354	0.1654	3.3423	2.6398	-2.1039	-0.8423	-0.5288
1781.2500	7.1873	-8.7025	6.2817	5.1093	3.9237	0.9352	6.1689	4.9184	1.0185	4.0693	5.2345	6.7926	6.3163	2.8370	3.8642	4.3975	5.5607	5.5535	6.1747	1.9532	3.8329	3.8635	6.4399	3.0466	-0.2176	1.4144	0.1524	4.0924	3.8532	-1.2589	-0.4856	0.0967
1789.0625	9.1038	-7.3332	8.1879	6.4522	3.9034	1.3633	7.9532	6.6805	1.0779	4.0367	7.2837	7.4190	5.6289	4.4176	3.2971	6.2371	6.9594	6.1693	5.9179	3.6439	5.2134	5.7199	6.8790	3.0217	1.7798	3.0289	1.7443	4.9856	4.2696	0.1264	0.7775	1.0899
1796.8750	8.3772	-8.2914	7.3498	5.4976	2.7576	2.8062	7.5579	6.0866	-0.4229	1.9665	7.3007	6.4385	3.6052	4.2272	2.3819	5.8915	6.3070	5.0335	4.3029	3.8763	4.5845	5.6990	5.5796	1.6201	1.5814	2.6490	1.4841	3.4690	2.5431	-0.2003	0.3279	-0.0679
1804.6875	7.9358	-7.7667	6.5952	4.9785	2.6418	2.5156	7.3943	5.6247	0.0572	1.3881	7.9898	6.0481	2.9108	4.2259	1.7847	6.4246	6.1451	4.3612	3.7657	4.7655	4.5760	5.8295	5.0657	1.6331	2.3733	3.0716	2.4411	3.4183	2.5006	0.8196	1.0760	0.1525
1812.5000	9.1517	-5.7110	7.9367	6.1837	3.6987	3.5714	8.3789	6.7462	1.5526	2.8436	8.8968	7.1137	4.2301	5.6808	2.3728	7.0631	6.6528	4.7261	4.1569	4.8151	4.8967	6.3876	5.2458	1.6631	2.1475	3.0107	3.2417	3.9341	2.8801	0.9056	1.8405	1.2975
1820.3125	9.0467	-5.6038	8.0950	6.7984	4.0081	3.8972	8.0471	7.0554	1.9317	3.3820	8.6284	6.8407	3.8221	5.3152	1.8881	6.2941	5.5826	3.3321	3.0015	3.5335	3.1980	4.8097	3.3586	0.0363	0.3779	0.4493	1.1873	1.6803	0.9689	-1.2332	-0.0696	-0.6766
1828.1250	9.4373	-3.9632	7.6200	6.6432	2.3482	4.5410	7.6951	6.8403	-0.1391	1.8757	8.5301	6.2415	2.7172	4.4752	2.4544	5.6739	4.3360	1.9332	1.8351	3.9247	2.1109	2.8906	1.2201	-0.8640	-0.1796	-0.5766	-0.8643	-0.4558	-0.5356	-2.0310	-1.1310	-2.2076
1835.9375	8.7868	-3.4901	7.6375	6.1890	3.3907	5.4967	8.4231	6.6915	1.0920	2.0742	7.8390	6.4799	1.9194	3.5148	1.9763	5.2208	3.3424	0.0205	0.6631	3.0630	0.9961	0.8223	-0.8663	-1.7886	-0.7785	-1.5808	-2.9174	-3.0065	-2.1364	-3.3349	-2.9403	-3.9832
1843.7500	10.8869	-2.2861	10.5377	8.2211	6.1868	5.8814	10.5664	8.5478	2.4147	3.9755	9.1663	8.1569	3.6367	4.5825	2.4929	5.5978	4.3790	0.8825	1.6982	2.2500	1.6014	0.6096	-0.6104	-1.4174	-1.0734	-1.3463	-3.3840	-2.9681	-2.2927	-3.5205	-3.1220	-4.3871
1851.5625	8.9616	-3.7452	8.6935	6.9756	6.1657	5.3381	7.9838	6.8510	2.2794	4.0544	6.8770	5.7335	2.9988	2.6908	2.2578	3.3878	2.5520	-0.0807	1.0136	0.4209	0.8080	-1.0526	-1.0684	-2.6191	-1.8819	-1.4381	-4.2087	-3.4275	-3.0497	-4.3176	-3.9313	-4.9588
1859.3750	9.2019	-1.2366	8.2877	6.4113	5.6887	3.5283	7.6147	5.7402	0.4879	5.2621	6.5852	4.6170	4.3170	2.0068	3.5032	3.9859	2.8133	1.3310	3.3584	1.5051	2.1766	0.2074	1.5301	-0.2454	0.0512	1.2541	-2.0993	-0.0629	0.2636	-1.4645	-1.4420	-2.4898
1867.1875	5.7799	-3.4365	4.8382	3.1200	3.1178	4.4915	5.3004	2.2909	-1.3758	3.2199	5.2187	2.7999	3.1086	-0.5357	1.5731	2.7099	2.0036	1.2271	2.9722	1.1946	2.1878	0.6654	2.5562	0.2765	0.8502	2.7982	-0.9635	1.7568	1.9463	-0.4136	-0.5563	-0.8266
1875.0000	1.6579	-4.8848	1.9812	0.7875	0.6864	-0.2352	2.5094	0.7325	-3.1678	2.2188	3.9410	1.8411	3.5490	-0.3841	1.3681	2.4198	2.8583	2.5941	3.5693	1.1015	3.2390	2.4645	3.9677	0.8027	1.8898	3.9337	0.8225	3.1397	2.6330	0.8201	1.0063	0.0645
1882.8125	-1.3587	-6.4354	-1.2314	-2.5693	-2.3712	2.0834	0.9479	-1.9779	-5.2440	-0.3881	2.8038	0.4518	2.2057	-2.1255	-0.0343	1.5502	1.5029	1.6377	2.2709	0.3948	2.1120	2.2958	3.1893	-0.1221	0.4810	2.7958	0.6998	2.3625	1.6734	-0.4121	0.4566	-0.5023
1890.6250	-1.3950	-5.7761	-2.1341	-3.3694	-4.0200	0.2050	0.3552	-2.6324	-6.5520	-1.1019	2.6498	-0.6385	1.5857	-2.0165	0.2125	1.2964	1.2743	1.7743	2.3700	0.3727	1.4630	2.8759	3.4713	0.8980	0.0845	1.5800	0.9347	2.6058	2.2491	-0.7690	0.3498	-0.1925
1898.4375	-2.1949	-7.5214	-2.6802	-3.2418	-3.8853	-0.3202	-1.0905	-3.1762	-6.3195	-1.5331	1.2963	-1.9929	0.0521	-2.1261	-0.3500	-0.2934	-0.1975	0.4034	1.3855	-0.9288	-0.5045	1.8555	1.7210	0.3234	-1.4968	-0.5469	-0.3952	0.9263	0.6988	-1.9260	-0.7541	-1.3622
1906.2500	0.0159	-4.8772	0.2671	-0.8695	-3.0012	0.6799	1.8622	-0.8817	-5.4396	-1.5180	3.7850	-0.5055	-1.0042	-0.7674	-0.8290	0.8621	0.5481	-0.7900	0.3921	-0.5624	-1.1586	1.1960	0.2148	-0.5162	-2.7317	-2.4232	-1.5382	-0.7345	-0.7311	-2.8607	-1.2508	-2.0924
1914.0625	0.5574	-4.5892	1.7358	-0.4810	-3.0531	3.2036	3.1800	0.6748	-6.1165	-2.8486	4.0852	1.2270	-2.8430	-0.9256	-1.9447	0.7510	-0.2627	-3.5007	-1.9984	-0.6302	-2.9262	-1.7222	-3.2970	-2.7195	-3.7728	-4.8481	-4.8783	-4.5466	-3.6556	-5.2134	-4.2431	-5.4808
1921.8750	0.3342	-4.9036	2.9890	0.9795	-1.9842	3.1230	4.5852	2.2004	-5.0156	-2.1646	5.9071	3.0165	-2.4802	-0.8218	-1.5918	2.2084	-0.4210	-4.2147	-2.4615	0.9331	-3.4012	-3.6009	-4.6830	-3.2359	-3.4075	-6.1357	-7.1780	-6.2548	-4.3029	-5.7805	-5.3900	-6.6377
1929.6875	0.1691	-5.1516	2.6834	1.8905	-1.3146	3.8480	4.0711	2.5173	-3.8064	-1.7527	5.7646	3.2511	-1.7239	-0.0553	-1.4693	1.5101	-0.8676	-4.2698	-2.1124	0.1693	-3.9471	-4.8237	-5.3839	-2.9566	-4.5257	-7.4079	-8.9312	-7.4878	-4.7364	-7.0580	-6.8507	-7.7274
1937.5000	-0.3007	-5.6992	2.6360	3.0603	2.0676	1.7848	3.4618	3.2058	-1.0305	0.6362	5.0590	3.5177	1.1230	0.9376	0.1643	1.4975	-0.0270	-2.4904	-0.1160	0.2599	-3.1980	-4.3621	-3.7408	-1.4333	-3.6271	-5.9980	-8.3264	-6.4503	-3.5417	-6.1131	-5.9958	-7.0044
1945.3125	1.4458	-5.1566	4.9703	5.2282	4.6491	1.7789	4.7497	5.5091	1.0506	3.2663	4.2033	4.1663	4.2684	2.5939	2.6644	1.4086	1.1496	0.2642	2.9163	-0.6468	-1.7061	-2.0977	-0.4680	0.2469	-4.0111	-4.2685	-6.2673	-3.4416	-1.6087	-5.2491	-4.2234	-4.6898
1953.1250	1.0397	-6.5530	5.9564	6.0384	4.7394	1.9212	4.6827	7.0265	1.7287	3.4369	2.8419	4.8835	4.1879	3.5182	2.7259	0.6790	2.2459	1.4762	3.6004	-2.0318	-1.3516	-0.5833	0.8981	0.0589	-4.8853	-3.8385	-5.2295	-2.0981	-1.4923	-5.5563	-4.5124	-5.0609
1960.9375	1.1938	-5.7365	6.3287	5.8722	4.5191	0.0460	4.6659	7.2985	0.8974	4.1556	3.1035	5.9780	5.0571	4.3616	3.9164	1.6296	3.8348	3.3116	5.2763	-0.3685	1.0217	1.7419	3.2116	1.8327	-2.1337	-1.2657	-2.4181	0.5294	0.5536	-2.8108	-2.2858	-2.9764
1968.7500	0.3844	-6.8534	4.3420	4.0763	3.5432	0.8711	3.1482	4.8103	0.8536	3.6448	1.6244	4.4679	5.2147	3.7188	2.7343	0.8258	3.4574	4.4314	5.3685	-0.8550	1.2369	3.4318	4.7522	1.7073	-1.5500	-0.0053	-0.1559	2.9780	1.8887	-1.7281	-0.5306	-0.6636
1976.5625	-0.0346	-6.6278	1.9637	1.8588	1.1065	-0.6007	1.2222	2.6164	-1.6128	2.2626	1.4018	2.8692	5.4208	3.8857	2.9033	0.7649	4.3333	6.5080	6.0614	-0.6119	2.2779	6.1610	7.6890	2.6943	-1.1508	1.2552	2.2765	6.1220	4.0523	-0.6333	1.7827	1.6892
1984.3750	-2.0909	-7.4632	-1.2229	-0.5349	-0.2329	0.1865	-1.3267	0.0047	-2.8403	0.4923	-0.7858	0.6552	3.7785	2.4809	1.5534	-0.0805	3.7508	6.1104	4.2654	-0.8819	2.3362	6.5656	7.2868	0.7380	-0.9028	2.3654	3.4017	6.0541	3.3258	-0.4959	1.4762	1.3942
1992.1875	-1.0288	-7.2042	1.2520	1.5316	-0.0760	-1.3149	0.8954	3.0527	-1.4547	0.2508	1.6385	2.9046	4.9820	4.9680	0.3117	2.4577	6.1983	7.9922	4.5820	1.5800	5.1442	9.0999	8.1510	1.0100	1.7459	5.3348	5.7087	6.6359	4.0471	2.0672	3.2570	2.3474
